Time Pitch Intensity
0.01 --undefined-- --undefined--
0.02 234.831 --undefined--
0.03 236.297 --undefined--
0.04 238.036 --undefined--
0.05 239.501 73.167
0.06 238.853 71.088
0.07 235.983 67.751
0.08 235.942 64.246
0.09 236.776 63.673
0.10 236.467 63.808
0.11 242.158 62.600
0.12 237.301 64.843
0.13 225.752 69.864
0.14 215.381 73.213
0.15 206.263 75.101
0.16 202.298 75.888
0.17 199.061 75.949
0.18 195.996 76.167
0.19 192.022 77.089
0.20 189.098 78.362
0.21 186.504 79.231
0.22 183.216 79.314
0.23 --undefined-- 78.108
0.24 --undefined-- 75.361
0.25 --undefined-- 72.205
0.26 --undefined-- 69.347
0.27 --undefined-- 65.342
0.28 --undefined-- 62.319
0.29 --undefined-- 63.105
0.30 --undefined-- 62.911
0.31 --undefined-- 59.897
0.32 --undefined-- 54.446
0.33 --undefined-- 51.692
0.34 --undefined-- 53.665
0.35 --undefined-- 54.199
0.36 --undefined-- 52.966
0.37 --undefined-- 51.793
0.38 --undefined-- 53.511
0.39 --undefined-- 55.004
0.40 --undefined-- 54.593
0.41 --undefined-- 53.873
0.42 --undefined-- 53.457
0.43 --undefined-- 52.631
0.44 --undefined-- 51.490
0.45 --undefined-- 50.755
0.46 --undefined-- 54.139
0.47 --undefined-- 57.371
0.48 --undefined-- 58.082
0.49 --undefined-- 58.942
0.50 --undefined-- 61.070
0.51 --undefined-- 60.699
0.52 --undefined-- 57.186
0.53 --undefined-- 53.309
0.54 --undefined-- 51.880
0.55 --undefined-- 53.043
0.56 --undefined-- 56.288
0.57 --undefined-- 57.639
0.58 --undefined-- 57.241
0.59 --undefined-- 58.213
0.60 260.604 60.783
0.61 242.141 63.542
0.62 223.645 65.786
0.63 231.258 67.983
0.64 236.320 69.794
0.65 241.923 70.701
0.66 249.597 70.792
0.67 254.540 70.460
0.68 255.119 69.181
0.69 235.350 66.059
0.70 235.543 61.825
0.71 235.652 58.268
0.72 --undefined-- 54.913
0.73 --undefined-- 56.725
0.74 --undefined-- 63.797
0.75 --undefined-- 70.118
0.76 180.525 74.008
0.77 181.356 75.648
0.78 182.940 75.941
0.79 184.193 75.762
0.80 185.494 75.519
0.81 185.973 75.462
0.82 184.904 75.352
0.83 182.474 74.264
0.84 181.613 71.259
0.85 185.196 66.177
0.86 185.249 62.478
0.87 187.828 63.326
0.88 183.483 62.949
0.89 184.298 59.482
0.90 --undefined-- 54.771
0.91 --undefined-- 59.028
0.92 --undefined-- 65.710
0.93 258.774 68.581
0.94 261.058 67.738
0.95 --undefined-- 64.304
0.96 --undefined-- 61.637
0.97 --undefined-- 59.940
0.98 --undefined-- 57.968
0.99 --undefined-- 56.848
1.00 --undefined-- 57.415
1.01 181.780 59.444
1.02 181.663 61.663
1.03 203.994 64.013
1.04 215.277 66.466
1.05 207.518 68.250
1.06 192.825 69.347
1.07 187.037 70.356
1.08 185.381 71.425
1.09 185.554 72.433
1.10 186.695 73.517
1.11 190.130 74.245
1.12 194.821 73.729
1.13 201.092 71.665
1.14 205.479 69.033
1.15 205.080 66.452
1.16 201.716 63.151
1.17 198.926 59.613
1.18 --undefined-- 57.571
1.19 --undefined-- 57.791
1.20 --undefined-- 59.896
1.21 --undefined-- 62.579
1.22 --undefined-- 63.694
1.23 --undefined-- 63.157
1.24 --undefined-- 64.430
1.25 215.169 67.120
1.26 205.705 68.490
1.27 --undefined-- 68.030
1.28 --undefined-- 66.293
1.29 --undefined-- 64.356
1.30 --undefined-- 62.547
1.31 --undefined-- 62.315
1.32 183.126 64.024
1.33 179.604 65.597
1.34 188.369 67.421
1.35 201.990 69.132
1.36 219.016 70.101
1.37 227.035 71.054
1.38 232.528 72.107
1.39 242.185 73.031
1.40 253.586 74.425
1.41 255.806 76.050
1.42 256.393 76.702
1.43 257.078 76.380
1.44 256.945 75.784
1.45 253.434 75.111
1.46 248.238 74.315
1.47 239.503 74.145
1.48 231.560 74.894
1.49 224.903 75.175
1.50 215.611 74.581
1.51 207.791 74.042
1.52 201.886 73.544
1.53 191.777 73.011
1.54 186.061 72.763
1.55 182.583 72.046
1.56 183.057 70.731
1.57 182.122 69.721
1.58 179.958 69.534
1.59 175.673 69.746
1.60 171.304 69.846
1.61 169.113 69.392
1.62 170.658 68.150
1.63 173.180 66.354
1.64 171.314 64.207
1.65 159.926 61.004
1.66 --undefined-- 56.318
1.67 --undefined-- 51.736
1.68 --undefined-- 51.224
1.69 --undefined-- 55.447
1.70 --undefined-- 58.933
1.71 --undefined-- 59.921
1.72 --undefined-- 58.750
1.73 --undefined-- 58.378
1.74 --undefined-- 59.906
1.75 --undefined-- 61.236
1.76 --undefined-- 62.213
1.77 --undefined-- 61.926
1.78 --undefined-- 60.496
1.79 --undefined-- 63.153
1.80 218.463 67.785
1.81 206.973 70.893
1.82 201.416 72.355
1.83 202.318 72.915
1.84 206.998 73.444
1.85 214.667 74.384
1.86 229.192 75.888
1.87 243.888 77.083
1.88 263.766 77.001
1.89 285.263 75.772
1.90 151.289 74.102
1.91 154.244 71.920
1.92 151.428 68.391
1.93 --undefined-- 63.913
1.94 --undefined-- 61.515
1.95 --undefined-- 61.793
1.96 --undefined-- 62.434
1.97 --undefined-- 62.287
1.98 --undefined-- 62.609
1.99 --undefined-- 63.361
2.00 235.465 63.121
2.01 224.222 63.730
2.02 228.551 66.989
2.03 230.448 70.084
2.04 206.780 72.224
2.05 198.942 73.181
2.06 193.754 73.180
2.07 191.277 73.243
2.08 190.561 73.618
2.09 190.824 73.751
2.10 195.662 73.629
2.11 204.836 73.071
2.12 213.551 72.013
2.13 223.353 71.215
2.14 233.205 70.530
2.15 236.081 68.789
2.16 231.577 65.313
2.17 217.087 60.666
2.18 225.610 58.219
2.19 296.345 61.386
2.20 268.460 64.756
2.21 267.526 66.391
2.22 267.467 66.952
2.23 269.877 67.164
2.24 271.792 67.304
2.25 273.871 67.419
2.26 275.545 67.710
2.27 278.038 68.050
2.28 280.486 68.214
2.29 281.396 68.376
2.30 281.567 68.466
2.31 279.923 68.228
2.32 277.033 68.435
2.33 273.412 69.175
2.34 269.349 70.247
2.35 261.652 71.565
2.36 251.318 72.260
2.37 238.730 72.016
2.38 225.797 71.237
2.39 220.124 70.678
2.40 218.914 70.383
2.41 211.931 69.531
2.42 197.990 68.519
2.43 187.145 68.378
2.44 181.394 68.511
2.45 173.638 67.803
2.46 170.745 66.616
2.47 174.771 66.554
2.48 176.787 67.268
2.49 178.394 67.337
2.50 179.943 67.172
2.51 183.410 67.548
2.52 189.038 68.064
2.53 195.356 68.165
2.54 202.590 67.792
2.55 213.931 67.656
2.56 219.129 68.317
2.57 222.584 69.004
2.58 224.257 68.862
2.59 220.404 67.179
2.60 205.027 64.436
2.61 217.753 66.272
2.62 215.257 70.295
2.63 204.989 72.823
2.64 189.294 74.251
2.65 183.530 74.743
2.66 179.789 74.058
2.67 180.737 72.677
2.68 184.295 71.775
2.69 184.406 71.718
2.70 183.881 71.725
2.71 183.185 71.577
2.72 182.885 71.375
2.73 183.710 71.323
2.74 185.530 71.484
2.75 188.635 71.615
2.76 192.888 71.745
2.77 196.996 72.233
2.78 198.936 72.878
2.79 198.665 73.384
2.80 199.299 74.020
2.81 199.473 74.697
2.82 199.349 75.041
2.83 198.680 74.926
2.84 198.177 74.489
2.85 199.208 74.118
2.86 199.404 74.076
2.87 198.794 74.257
2.88 197.861 74.405
2.89 196.817 74.550
2.90 196.089 74.922
2.91 195.879 75.302
2.92 196.437 75.303
2.93 197.117 74.939
2.94 197.547 74.464
2.95 197.516 73.657
2.96 197.953 71.696
2.97 200.119 68.441
2.98 198.809 64.720
2.99 197.373 61.533
3.00 197.234 60.076
3.01 199.874 59.563
3.02 --undefined-- 60.789
3.03 --undefined-- 61.875
3.04 200.883 62.016
3.05 198.900 62.195
3.06 199.281 62.774
3.07 202.411 62.771
3.08 199.026 61.382
3.09 190.844 60.695
3.10 195.470 62.248
3.11 189.145 63.580
3.12 183.819 64.224
3.13 180.674 64.113
3.14 176.612 63.448
3.15 172.263 63.144
3.16 169.689 63.098
3.17 167.850 62.649
3.18 166.194 61.715
3.19 164.066 60.479
3.20 163.227 59.574
3.21 163.465 59.577
3.22 165.872 60.081
3.23 164.730 61.458
3.24 164.175 63.074
3.25 162.695 63.547
3.26 159.884 64.098
3.27 156.461 64.767
3.28 151.459 64.117
3.29 150.357 62.656
3.30 162.462 61.591
3.31 163.173 61.299
3.32 163.958 61.665
3.33 165.563 62.512
3.34 165.235 64.135
3.35 164.864 65.504
3.36 164.809 65.694
3.37 164.524 65.544
3.38 163.032 65.029
3.39 157.826 62.679
3.40 153.039 58.128
3.41 --undefined-- 54.770
3.42 --undefined-- 55.398
3.43 --undefined-- 57.686
3.44 --undefined-- 59.651
3.45 --undefined-- 59.425
3.46 --undefined-- 58.089
3.47 --undefined-- 59.911
3.48 --undefined-- 63.507
3.49 245.270 66.771
3.50 252.657 69.120
3.51 262.707 70.190
3.52 269.980 70.797
3.53 276.086 71.818
3.54 280.185 72.310
3.55 280.903 71.851
3.56 286.956 71.474
3.57 288.920 71.235
3.58 286.810 70.834
3.59 284.991 70.832
3.60 278.939 71.110
3.61 276.040 71.115
3.62 273.204 70.884
3.63 271.460 70.689
3.64 270.345 70.346
3.65 268.809 69.747
3.66 266.060 68.873
3.67 261.902 67.467
3.68 251.164 65.383
3.69 235.354 63.454
3.70 254.937 62.456
3.71 250.826 62.460
3.72 248.828 64.444
3.73 240.278 67.339
3.74 229.002 69.338
3.75 210.407 70.582
3.76 198.114 71.500
3.77 189.980 72.030
3.78 186.670 71.803
3.79 185.063 70.970
3.80 186.753 70.398
3.81 190.176 70.194
3.82 192.591 69.902
3.83 193.728 69.645
3.84 193.540 69.793
3.85 192.789 70.078
3.86 192.422 70.168
3.87 192.394 70.241
3.88 192.150 70.410
3.89 191.442 70.341
3.90 192.398 69.830
3.91 193.109 69.531
3.92 193.302 70.277
3.93 195.685 71.655
3.94 197.181 72.686
3.95 197.625 72.985
3.96 198.095 72.808
3.97 198.494 72.747
3.98 194.703 73.342
3.99 189.269 73.999
4.00 184.521 73.541
4.01 183.398 72.221
4.02 --undefined-- 70.774
4.03 --undefined-- 68.680
4.04 --undefined-- 65.610
4.05 --undefined-- 60.894
4.06 --undefined-- 55.701
4.07 --undefined-- 53.297
4.08 --undefined-- 52.996
4.09 --undefined-- 54.420
4.10 --undefined-- 55.600
4.11 --undefined-- 57.331
4.12 --undefined-- 58.100
4.13 --undefined-- 56.649
4.14 --undefined-- 56.313
4.15 --undefined-- 58.657
4.16 --undefined-- 59.445
4.17 --undefined-- 58.907
4.18 --undefined-- 57.336
4.19 --undefined-- 56.642
4.20 --undefined-- 59.196
4.21 --undefined-- 60.581
4.22 --undefined-- 59.637
4.23 --undefined-- 56.752
4.24 --undefined-- 54.996
4.25 --undefined-- 55.172
4.26 --undefined-- 53.990
4.27 --undefined-- 52.436
4.28 --undefined-- 52.431
4.29 --undefined-- 52.212
4.30 --undefined-- 50.850
4.31 --undefined-- 49.863
4.32 --undefined-- 51.348
4.33 --undefined-- 53.683
4.34 --undefined-- 55.251
4.35 --undefined-- 55.873
4.36 --undefined-- 55.984
4.37 288.982 56.620
4.38 289.482 57.290
4.39 --undefined-- 57.674
4.40 --undefined-- 56.670
4.41 --undefined-- 54.263
4.42 --undefined-- 54.124
4.43 --undefined-- 58.431
4.44 --undefined-- 61.464
4.45 --undefined-- 61.850
4.46 --undefined-- 59.784
4.47 --undefined-- 60.031
4.48 238.714 63.939
4.49 219.396 66.689
4.50 220.285 68.713
4.51 224.157 70.231
4.52 226.448 71.596
4.53 229.453 73.388
4.54 234.058 74.908
4.55 236.287 75.304
4.56 236.610 74.850
4.57 241.150 74.141
4.58 245.464 73.142
4.59 252.388 72.016
4.60 256.936 71.136
4.61 258.947 70.470
4.62 259.516 69.509
4.63 257.576 67.766
4.64 235.973 64.996
4.65 237.553 61.490
4.66 --undefined-- 58.167
4.67 --undefined-- 62.317
4.68 151.919 67.882
4.69 147.605 70.744
4.70 149.652 72.053
4.71 154.599 73.039
4.72 158.553 74.012
4.73 164.116 75.283
4.74 169.525 76.055
4.75 179.790 75.325
4.76 192.766 73.836
4.77 199.196 72.765
4.78 200.961 72.333
4.79 197.490 72.675
4.80 188.644 72.329
4.81 188.295 69.852
4.82 191.111 65.028
4.83 --undefined-- 60.153
4.84 --undefined-- 61.115
4.85 --undefined-- 63.955
4.86 --undefined-- 67.468
4.87 --undefined-- 69.654
4.88 277.462 70.374
4.89 264.261 70.485
4.90 253.245 70.010
4.91 247.193 69.216
4.92 244.656 68.507
4.93 245.377 --undefined--
4.94 247.854 --undefined--
4.95 --undefined-- --undefined--
4.96 --undefined-- --undefined--
