Time Pitch Intensity
0.01 --undefined-- --undefined--
0.02 197.612 --undefined--
0.03 193.699 --undefined--
0.04 191.357 --undefined--
0.05 190.567 68.160
0.06 190.404 68.828
0.07 190.461 69.144
0.08 190.787 69.336
0.09 191.780 69.723
0.10 192.834 70.072
0.11 193.482 69.994
0.12 193.827 69.639
0.13 193.993 69.387
0.14 193.496 69.464
0.15 193.561 69.479
0.16 193.907 69.463
0.17 194.387 70.015
0.18 201.062 70.877
0.19 189.802 71.383
0.20 189.096 71.579
0.21 188.971 71.675
0.22 186.329 71.474
0.23 183.101 70.914
0.24 171.507 70.118
0.25 170.489 68.902
0.26 171.156 67.017
0.27 171.753 64.087
0.28 171.498 60.460
0.29 --undefined-- 57.849
0.30 --undefined-- 55.921
0.31 --undefined-- 55.974
0.32 --undefined-- 56.867
0.33 --undefined-- 54.781
0.34 --undefined-- 50.458
0.35 --undefined-- 49.988
0.36 --undefined-- 53.190
0.37 --undefined-- 55.137
0.38 --undefined-- 54.608
0.39 --undefined-- 53.201
0.40 --undefined-- 52.470
0.41 --undefined-- 51.320
0.42 --undefined-- 50.177
0.43 --undefined-- 49.831
0.44 --undefined-- 52.393
0.45 --undefined-- 55.187
0.46 --undefined-- 56.574
0.47 --undefined-- 58.312
0.48 271.727 59.940
0.49 279.893 59.463
0.50 257.358 58.115
0.51 258.583 57.532
0.52 258.930 55.146
0.53 --undefined-- 51.586
0.54 --undefined-- 52.631
0.55 --undefined-- 54.376
0.56 --undefined-- 55.517
0.57 --undefined-- 55.605
0.58 --undefined-- 54.978
0.59 --undefined-- 54.985
0.60 --undefined-- 53.368
0.61 --undefined-- 51.296
0.62 --undefined-- 54.027
0.63 --undefined-- 59.656
0.64 --undefined-- 63.018
0.65 --undefined-- 63.170
0.66 --undefined-- 62.438
0.67 252.766 66.219
0.68 247.624 70.151
0.69 242.720 72.612
0.70 243.152 73.800
0.71 246.807 73.622
0.72 256.685 72.383
0.73 260.328 70.699
0.74 259.038 68.296
0.75 247.446 65.369
0.76 249.293 64.624
0.77 291.695 67.388
0.78 165.458 70.333
0.79 173.535 71.881
0.80 183.421 72.672
0.81 189.882 73.248
0.82 196.134 72.920
0.83 206.627 71.247
0.84 213.994 69.322
0.85 220.880 68.212
0.86 222.170 67.907
0.87 219.619 68.181
0.88 205.744 68.452
0.89 199.279 68.282
0.90 193.114 67.589
0.91 187.273 67.166
0.92 182.990 68.230
0.93 180.829 70.357
0.94 174.796 71.055
0.95 --undefined-- 69.841
0.96 278.450 68.537
0.97 253.055 68.499
0.98 231.415 68.704
0.99 202.475 68.494
1.00 190.560 68.328
1.01 183.617 67.973
1.02 179.859 66.802
1.03 171.663 65.266
1.04 168.129 64.206
1.05 167.853 64.156
1.06 167.739 64.730
1.07 170.133 64.505
1.08 172.213 63.531
1.09 171.559 63.367
1.10 172.354 64.263
1.11 173.607 64.765
1.12 173.746 63.940
1.13 174.709 62.946
1.14 177.327 64.105
1.15 178.318 65.836
1.16 177.203 66.482
1.17 172.967 66.175
1.18 170.721 65.544
1.19 168.574 64.673
1.20 165.827 63.500
1.21 166.262 62.676
1.22 169.707 63.358
1.23 172.512 64.518
1.24 177.294 64.873
1.25 183.541 65.072
1.26 189.305 65.610
1.27 198.041 65.489
1.28 216.902 65.010
1.29 232.175 65.444
1.30 241.799 66.062
1.31 266.246 67.112
1.32 274.507 68.783
1.33 286.327 69.802
1.34 155.173 70.030
1.35 160.267 69.721
1.36 162.484 68.880
1.37 161.838 66.798
1.38 --undefined-- 62.472
1.39 --undefined-- 56.028
1.40 --undefined-- 52.147
1.41 --undefined-- 55.846
1.42 --undefined-- 60.718
1.43 287.320 63.230
1.44 286.145 63.755
1.45 288.033 63.904
1.46 284.443 65.222
1.47 283.641 67.277
1.48 281.331 68.560
1.49 236.527 68.978
1.50 228.742 69.289
1.51 226.563 69.492
1.52 226.722 69.379
1.53 226.989 69.076
1.54 228.167 68.458
1.55 227.541 67.597
1.56 223.754 67.164
1.57 217.186 66.901
1.58 211.548 66.565
1.59 206.314 66.564
1.60 200.453 66.898
1.61 190.183 67.806
1.62 184.747 69.217
1.63 183.723 69.950
1.64 186.630 69.337
1.65 187.639 67.384
1.66 187.349 64.123
1.67 189.784 60.279
1.68 185.217 56.840
1.69 187.923 54.155
1.70 --undefined-- 55.895
1.71 --undefined-- 59.025
1.72 --undefined-- 61.896
1.73 --undefined-- 65.582
1.74 148.719 67.855
1.75 148.698 68.450
1.76 149.994 68.842
1.77 151.276 69.203
1.78 152.252 69.048
1.79 153.086 68.992
1.80 155.208 69.359
1.81 157.601 69.626
1.82 158.435 69.666
1.83 157.583 69.031
1.84 155.510 66.680
1.85 --undefined-- 62.031
1.86 --undefined-- 58.072
1.87 --undefined-- 59.346
1.88 --undefined-- 64.343
1.89 --undefined-- 68.516
1.90 --undefined-- 70.713
1.91 207.337 71.651
1.92 206.390 71.679
1.93 205.087 70.779
1.94 201.698 69.448
1.95 198.056 68.155
1.96 193.399 67.111
1.97 191.961 66.522
1.98 189.761 66.207
1.99 186.090 65.970
2.00 181.074 65.752
2.01 176.832 65.582
2.02 185.465 65.764
2.03 155.685 66.503
2.04 155.204 67.652
2.05 154.544 68.661
2.06 154.014 69.044
2.07 154.284 68.831
2.08 156.011 68.440
2.09 157.953 67.840
2.10 161.019 66.861
2.11 166.155 66.117
2.12 171.177 65.905
2.13 176.254 66.302
2.14 184.635 66.957
2.15 191.633 66.844
2.16 198.542 65.853
2.17 206.451 64.255
2.18 207.779 61.801
2.19 204.545 58.436
2.20 --undefined-- 57.551
2.21 --undefined-- 58.458
2.22 --undefined-- 56.930
2.23 208.209 57.139
2.24 208.066 61.550
2.25 209.978 63.774
2.26 209.817 64.375
2.27 201.675 65.252
2.28 172.315 65.750
2.29 168.010 65.303
2.30 164.963 64.431
2.31 162.827 63.641
2.32 161.376 63.278
2.33 160.478 63.239
2.34 159.835 63.400
2.35 160.508 63.930
2.36 161.832 64.224
2.37 162.320 63.841
2.38 163.377 63.718
2.39 160.589 63.147
2.40 162.729 60.977
2.41 --undefined-- 59.060
2.42 --undefined-- 58.700
2.43 --undefined-- 59.189
2.44 214.889 60.414
2.45 205.341 62.436
2.46 204.494 63.396
2.47 195.596 63.609
2.48 178.824 64.292
2.49 171.088 65.451
2.50 166.197 66.159
2.51 163.592 66.081
2.52 163.959 65.844
2.53 163.090 65.724
2.54 162.475 65.581
2.55 162.490 65.454
2.56 161.629 65.334
2.57 161.035 64.903
2.58 160.692 64.352
2.59 159.225 63.913
2.60 160.725 63.661
2.61 164.038 63.817
2.62 166.562 64.249
2.63 170.428 64.598
2.64 173.629 64.451
2.65 176.181 63.807
2.66 176.757 62.344
2.67 176.297 59.429
2.68 --undefined-- 55.487
2.69 --undefined-- 55.139
2.70 --undefined-- 61.870
2.71 --undefined-- 67.177
2.72 261.496 69.855
2.73 263.619 70.844
2.74 267.966 71.441
2.75 271.450 72.446
2.76 275.037 73.353
2.77 280.837 73.302
2.78 285.693 72.277
2.79 294.265 71.054
2.80 152.677 70.403
2.81 154.007 70.343
2.82 154.476 70.709
2.83 155.112 71.048
2.84 154.938 70.974
2.85 154.056 70.026
2.86 297.651 67.341
2.87 283.029 62.419
2.88 --undefined-- 57.547
2.89 --undefined-- 57.200
2.90 --undefined-- 58.583
2.91 --undefined-- 58.699
2.92 --undefined-- 57.928
2.93 --undefined-- 57.173
2.94 --undefined-- 56.115
2.95 --undefined-- 61.128
2.96 164.266 66.318
2.97 159.581 68.997
2.98 161.207 70.367
2.99 163.343 71.044
3.00 160.565 71.029
3.01 156.255 71.037
3.02 153.871 71.325
3.03 150.706 71.583
3.04 294.506 71.684
3.05 283.216 71.440
3.06 270.040 71.024
3.07 238.134 70.929
3.08 221.122 71.484
3.09 --undefined-- 72.077
3.10 --undefined-- 71.872
3.11 --undefined-- 70.401
3.12 --undefined-- 68.185
3.13 --undefined-- 66.477
3.14 --undefined-- 65.374
3.15 --undefined-- 64.026
3.16 183.197 61.987
3.17 190.473 59.801
3.18 187.683 57.260
3.19 --undefined-- 53.361
3.20 --undefined-- 51.858
3.21 --undefined-- 52.099
3.22 --undefined-- 52.512
3.23 --undefined-- 54.628
3.24 --undefined-- 56.132
3.25 --undefined-- 56.694
3.26 218.925 58.125
3.27 203.446 60.458
3.28 190.370 63.142
3.29 184.338 65.912
3.30 181.618 67.858
3.31 181.747 68.698
3.32 183.211 68.433
3.33 182.889 67.481
3.34 181.490 66.726
3.35 177.531 66.161
3.36 176.578 65.782
3.37 168.075 65.540
3.38 164.818 64.340
3.39 169.104 63.371
3.40 181.336 64.742
3.41 184.916 66.172
3.42 185.818 67.401
3.43 185.743 68.186
3.44 185.025 68.324
3.45 184.005 68.134
3.46 181.198 67.681
3.47 180.068 67.063
3.48 179.448 66.370
3.49 177.930 65.579
3.50 176.560 65.195
3.51 174.213 65.188
3.52 173.310 65.475
3.53 175.348 66.337
3.54 173.011 67.043
3.55 171.668 66.742
3.56 171.796 65.704
3.57 171.579 65.227
3.58 170.131 65.380
3.59 162.223 65.172
3.60 165.237 64.447
3.61 167.681 64.156
3.62 174.190 64.945
3.63 177.757 65.868
3.64 179.985 66.634
3.65 182.105 67.433
3.66 185.474 67.981
3.67 189.745 68.075
3.68 194.400 67.768
3.69 198.989 67.142
3.70 204.844 66.617
3.71 208.105 66.643
3.72 209.874 66.973
3.73 212.212 67.060
3.74 212.409 66.057
3.75 210.274 63.083
3.76 209.345 58.344
3.77 203.604 55.262
3.78 --undefined-- 56.762
3.79 --undefined-- 60.573
3.80 282.867 65.168
3.81 275.410 68.968
3.82 274.851 71.466
3.83 273.237 72.496
3.84 271.804 72.188
3.85 272.426 71.289
3.86 273.577 70.599
3.87 275.215 70.154
3.88 276.979 69.804
3.89 278.225 69.394
3.90 278.754 68.992
3.91 278.505 68.885
3.92 278.415 69.260
3.93 277.964 69.819
3.94 276.822 70.131
3.95 275.923 70.048
3.96 273.866 69.538
3.97 270.801 68.471
3.98 265.814 66.367
3.99 257.743 62.515
4.00 243.059 56.610
4.01 --undefined-- 51.682
4.02 --undefined-- 51.727
4.03 --undefined-- 51.615
4.04 --undefined-- 54.321
4.05 --undefined-- 59.648
4.06 --undefined-- 63.067
4.07 191.838 65.020
4.08 183.132 66.280
4.09 176.614 66.963
4.10 173.153 67.447
4.11 170.407 67.968
4.12 167.850 68.408
4.13 166.763 68.661
4.14 167.551 69.032
4.15 168.460 69.465
4.16 170.938 69.730
4.17 174.359 69.866
4.18 181.761 70.506
4.19 191.733 71.998
4.20 200.925 73.371
4.21 208.386 74.145
4.22 213.768 74.123
4.23 221.860 73.253
4.24 226.699 72.541
4.25 224.975 71.996
4.26 218.350 70.614
4.27 --undefined-- 68.398
4.28 --undefined-- 65.711
4.29 --undefined-- 62.489
4.30 --undefined-- 60.888
4.31 --undefined-- 60.827
4.32 --undefined-- 61.065
4.33 --undefined-- 60.782
4.34 --undefined-- 59.026
4.35 --undefined-- 56.917
4.36 --undefined-- 55.097
4.37 --undefined-- 56.818
4.38 --undefined-- 59.563
4.39 --undefined-- 59.519
4.40 --undefined-- 57.400
4.41 --undefined-- 55.942
4.42 --undefined-- 54.712
4.43 --undefined-- 54.669
4.44 --undefined-- 56.679
4.45 --undefined-- 57.574
4.46 --undefined-- 56.297
4.47 --undefined-- 53.867
4.48 --undefined-- 53.806
4.49 --undefined-- 54.706
4.50 --undefined-- 55.043
4.51 --undefined-- 54.822
4.52 --undefined-- 54.293
4.53 --undefined-- 56.133
4.54 --undefined-- 56.925
4.55 --undefined-- 54.665
4.56 --undefined-- 51.379
4.57 --undefined-- 50.555
4.58 --undefined-- 49.938
4.59 --undefined-- 49.732
4.60 --undefined-- 50.479
4.61 --undefined-- 50.962
4.62 --undefined-- 53.043
4.63 --undefined-- 56.573
4.64 --undefined-- 58.964
4.65 --undefined-- 61.399
4.66 --undefined-- 64.897
4.67 201.372 67.435
4.68 194.842 68.866
4.69 194.209 69.828
4.70 194.464 70.581
4.71 194.385 71.004
4.72 194.250 71.053
4.73 195.312 70.687
4.74 197.103 70.051
4.75 198.448 69.402
4.76 198.402 69.222
4.77 195.692 69.744
4.78 194.097 70.545
4.79 192.695 71.262
4.80 191.075 71.704
4.81 189.449 71.827
4.82 188.658 71.930
4.83 187.645 72.402
4.84 187.953 73.369
4.85 188.352 74.507
4.86 188.540 75.359
4.87 188.672 75.927
4.88 189.728 76.173
4.89 191.390 75.911
4.90 193.969 75.078
4.91 197.937 74.056
4.92 205.362 73.729
4.93 211.849 --undefined--
4.94 218.047 --undefined--
4.95 --undefined-- --undefined--
4.96 --undefined-- --undefined--
