Time Pitch Intensity
0.01 --undefined-- --undefined--
0.02 104.436 --undefined--
0.03 102.237 --undefined--
0.04 102.526 --undefined--
0.05 --undefined-- 61.022
0.06 --undefined-- 58.334
0.07 --undefined-- 55.982
0.08 --undefined-- 54.592
0.09 --undefined-- 54.548
0.10 --undefined-- 55.691
0.11 --undefined-- 57.318
0.12 --undefined-- 58.695
0.13 --undefined-- 59.048
0.14 --undefined-- 58.566
0.15 --undefined-- 59.044
0.16 --undefined-- 60.222
0.17 --undefined-- 61.187
0.18 102.439 62.903
0.19 101.772 65.205
0.20 97.748 67.053
0.21 95.442 67.914
0.22 92.532 68.106
0.23 90.205 68.152
0.24 90.582 68.062
0.25 88.429 67.717
0.26 88.674 67.211
0.27 88.450 66.733
0.28 88.185 67.252
0.29 86.848 68.025
0.30 86.511 68.116
0.31 86.089 68.072
0.32 85.830 68.045
0.33 85.591 68.054
0.34 84.991 67.987
0.35 83.833 67.581
0.36 83.704 66.943
0.37 83.249 66.312
0.38 82.845 65.423
0.39 82.633 64.149
0.40 82.985 62.735
0.41 84.809 62.203
0.42 85.470 62.683
0.43 83.703 62.842
0.44 84.334 62.415
0.45 84.889 61.978
0.46 84.867 61.373
0.47 85.322 60.089
0.48 85.251 58.231
0.49 --undefined-- 55.733
0.50 --undefined-- 52.656
0.51 --undefined-- 51.305
0.52 --undefined-- 51.171
0.53 --undefined-- 49.363
0.54 --undefined-- 48.127
0.55 --undefined-- 48.507
0.56 --undefined-- 49.189
0.57 --undefined-- 50.347
0.58 --undefined-- 50.153
0.59 --undefined-- 47.820
0.60 --undefined-- 44.671
0.61 --undefined-- 43.264
0.62 --undefined-- 46.666
0.63 --undefined-- 49.666
0.64 --undefined-- 50.443
0.65 --undefined-- 53.364
0.66 --undefined-- 59.861
0.67 --undefined-- 65.240
0.68 88.647 68.338
0.69 86.454 69.690
0.70 86.111 69.940
0.71 85.795 69.489
0.72 84.036 68.232
0.73 --undefined-- 65.480
0.74 --undefined-- 60.712
0.75 83.332 56.660
0.76 83.132 56.272
0.77 82.932 56.423
0.78 84.226 56.631
0.79 84.014 56.501
0.80 84.170 55.501
0.81 --undefined-- 53.415
0.82 --undefined-- 51.251
0.83 --undefined-- 51.001
0.84 --undefined-- 55.023
0.85 --undefined-- 61.155
0.86 --undefined-- 66.890
0.87 97.431 70.543
0.88 97.276 72.274
0.89 92.776 73.022
0.90 93.484 73.134
0.91 93.840 72.728
0.92 93.898 71.408
0.93 --undefined-- 68.631
0.94 --undefined-- 64.458
0.95 --undefined-- 61.136
0.96 --undefined-- 61.913
0.97 --undefined-- 63.811
0.98 --undefined-- 65.991
0.99 103.614 68.347
1.00 104.119 69.475
1.01 103.747 68.974
1.02 102.736 66.986
1.03 96.904 63.631
1.04 --undefined-- 59.081
1.05 --undefined-- 58.081
1.06 --undefined-- 62.504
1.07 --undefined-- 65.213
1.08 --undefined-- 65.946
1.09 --undefined-- 65.359
1.10 --undefined-- 63.120
1.11 89.344 60.059
1.12 89.040 58.767
1.13 86.936 57.762
1.14 86.584 56.361
1.15 84.160 55.343
1.16 --undefined-- 56.348
1.17 --undefined-- 60.879
1.18 --undefined-- 64.545
1.19 --undefined-- 65.723
1.20 --undefined-- 65.653
1.21 --undefined-- 64.726
1.22 --undefined-- 61.563
1.23 --undefined-- 55.695
1.24 --undefined-- 49.727
1.25 --undefined-- 48.567
1.26 --undefined-- 49.334
1.27 --undefined-- 49.844
1.28 --undefined-- 49.485
1.29 --undefined-- 48.181
1.30 --undefined-- 46.343
1.31 --undefined-- 44.605
1.32 --undefined-- 45.259
1.33 --undefined-- 52.378
1.34 --undefined-- 59.088
1.35 --undefined-- 61.872
1.36 --undefined-- 62.072
1.37 --undefined-- 62.993
1.38 --undefined-- 64.652
1.39 94.254 65.289
1.40 84.545 64.842
1.41 82.015 63.835
1.42 82.216 62.809
1.43 78.566 62.155
1.44 78.424 62.407
1.45 74.471 63.513
1.46 --undefined-- 64.250
1.47 --undefined-- 63.627
1.48 --undefined-- 62.652
1.49 --undefined-- 62.111
1.50 --undefined-- 61.351
1.51 --undefined-- 60.903
1.52 --undefined-- 61.300
1.53 --undefined-- 61.895
1.54 --undefined-- 60.238
1.55 84.358 57.238
1.56 84.101 58.657
1.57 85.737 62.175
1.58 --undefined-- 66.324
1.59 93.608 69.374
1.60 98.852 71.093
1.61 100.369 71.889
1.62 103.635 71.812
1.63 --undefined-- 70.446
1.64 --undefined-- 67.490
1.65 --undefined-- 63.731
1.66 --undefined-- 60.087
1.67 --undefined-- 56.650
1.68 --undefined-- 54.060
1.69 --undefined-- 50.820
1.70 --undefined-- 45.747
1.71 --undefined-- 39.782
1.72 --undefined-- 37.045
1.73 --undefined-- 38.310
1.74 --undefined-- 43.095
1.75 --undefined-- 45.770
1.76 --undefined-- 44.793
1.77 --undefined-- 43.157
1.78 --undefined-- 44.140
1.79 --undefined-- 45.295
1.80 --undefined-- 46.076
1.81 --undefined-- 46.097
1.82 --undefined-- 45.571
1.83 --undefined-- 45.620
1.84 --undefined-- 45.980
1.85 --undefined-- 46.096
1.86 --undefined-- 45.717
1.87 --undefined-- 45.240
1.88 --undefined-- 45.669
1.89 --undefined-- 46.628
1.90 --undefined-- 47.015
1.91 --undefined-- 46.285
1.92 --undefined-- 45.060
1.93 --undefined-- 44.543
1.94 --undefined-- 44.505
1.95 --undefined-- 43.958
1.96 --undefined-- 42.587
1.97 --undefined-- 42.173
1.98 --undefined-- 45.149
1.99 --undefined-- 46.973
2.00 --undefined-- 46.039
2.01 --undefined-- 43.265
2.02 --undefined-- 40.097
2.03 --undefined-- 38.488
2.04 --undefined-- 38.546
2.05 --undefined-- 40.272
2.06 --undefined-- 43.374
2.07 --undefined-- 44.413
2.08 --undefined-- 43.359
2.09 --undefined-- 48.129
2.10 --undefined-- 53.814
2.11 --undefined-- 55.178
2.12 --undefined-- 52.355
2.13 --undefined-- 54.587
2.14 --undefined-- 62.936
2.15 --undefined-- 67.119
2.16 --undefined-- 67.402
2.17 --undefined-- 64.289
2.18 100.093 59.164
2.19 99.397 57.222
2.20 102.013 58.480
2.21 104.601 59.973
2.22 105.468 60.762
2.23 106.364 61.445
2.24 105.801 62.122
2.25 105.824 62.590
2.26 105.449 63.077
2.27 101.585 63.457
2.28 101.879 63.833
2.29 101.522 64.246
2.30 98.530 65.415
2.31 97.230 66.903
2.32 96.307 67.749
2.33 95.996 68.354
2.34 96.111 68.982
2.35 95.706 68.887
2.36 94.281 67.539
2.37 93.313 65.436
2.38 92.661 64.576
2.39 94.979 64.712
2.40 96.262 66.144
2.41 95.095 68.928
2.42 94.904 70.658
2.43 95.006 70.937
2.44 95.256 70.231
2.45 95.006 68.413
2.46 --undefined-- 64.820
2.47 --undefined-- 59.723
2.48 99.968 56.406
2.49 102.244 56.028
2.50 102.588 55.666
2.51 107.091 54.684
2.52 107.600 55.141
2.53 108.695 56.910
2.54 107.997 57.150
2.55 105.305 56.122
2.56 108.799 54.973
2.57 103.735 52.838
2.58 --undefined-- 49.258
2.59 --undefined-- 44.493
2.60 --undefined-- 39.508
2.61 --undefined-- 45.713
2.62 --undefined-- 56.489
2.63 --undefined-- 64.138
2.64 --undefined-- 70.165
2.65 --undefined-- 73.730
2.66 98.891 74.862
2.67 85.992 74.733
2.68 85.053 74.161
2.69 84.135 73.155
2.70 85.861 72.573
2.71 85.656 72.579
2.72 86.228 72.509
2.73 86.430 72.950
2.74 89.341 73.089
2.75 93.518 72.419
2.76 98.335 71.477
2.77 100.749 70.429
2.78 105.026 68.906
2.79 108.658 66.960
2.80 108.862 64.739
2.81 109.302 63.343
2.82 102.631 63.729
2.83 99.897 64.666
2.84 97.354 65.707
2.85 96.534 66.989
2.86 96.663 68.018
2.87 88.810 68.356
2.88 88.759 68.446
2.89 86.732 68.216
2.90 85.203 67.479
2.91 83.205 66.490
2.92 82.559 65.396
2.93 82.363 64.251
2.94 79.949 62.833
2.95 79.466 60.726
2.96 79.853 58.047
2.97 80.582 55.609
2.98 80.623 53.560
2.99 --undefined-- 51.323
3.00 --undefined-- 49.114
3.01 --undefined-- 48.275
3.02 --undefined-- 49.377
3.03 79.545 51.695
3.04 79.841 54.342
3.05 80.153 57.832
3.06 80.531 62.188
3.07 79.998 65.709
3.08 79.311 67.979
3.09 79.363 69.071
3.10 79.826 69.060
3.11 80.986 68.852
3.12 80.384 68.825
3.13 82.107 68.623
3.14 81.898 68.141
3.15 81.641 66.941
3.16 81.641 65.115
3.17 81.731 63.114
3.18 82.180 61.368
3.19 82.627 60.158
3.20 83.406 58.430
3.21 --undefined-- 56.129
3.22 --undefined-- 52.917
3.23 --undefined-- 47.739
3.24 --undefined-- 49.305
3.25 --undefined-- 53.795
3.26 --undefined-- 55.990
3.27 --undefined-- 56.845
3.28 --undefined-- 58.988
3.29 --undefined-- 62.842
3.30 --undefined-- 65.223
3.31 86.337 65.964
3.32 85.970 66.060
3.33 85.386 65.741
3.34 84.060 64.955
3.35 81.463 64.259
3.36 80.923 64.141
3.37 80.328 64.228
3.38 79.937 63.813
3.39 79.639 63.502
3.40 81.396 64.681
3.41 80.585 65.693
3.42 79.993 65.747
3.43 78.161 65.709
3.44 78.296 66.068
3.45 75.897 65.809
3.46 --undefined-- 65.140
3.47 --undefined-- 64.254
3.48 --undefined-- 62.220
3.49 --undefined-- 58.605
3.50 --undefined-- 53.373
3.51 --undefined-- 47.043
3.52 --undefined-- 41.266
3.53 --undefined-- 39.552
3.54 --undefined-- 42.398
3.55 --undefined-- 45.968
3.56 --undefined-- 48.784
3.57 --undefined-- 50.312
3.58 --undefined-- 50.224
3.59 --undefined-- 49.211
3.60 --undefined-- 48.712
3.61 --undefined-- 49.375
3.62 --undefined-- 50.616
3.63 --undefined-- 50.982
3.64 --undefined-- 49.891
3.65 --undefined-- 48.890
3.66 --undefined-- 49.829
3.67 --undefined-- 50.851
3.68 --undefined-- 51.260
3.69 --undefined-- 51.703
3.70 --undefined-- 51.959
3.71 --undefined-- 51.967
3.72 --undefined-- 51.972
3.73 --undefined-- 51.451
3.74 --undefined-- 50.903
3.75 --undefined-- 50.491
3.76 --undefined-- 50.019
3.77 --undefined-- 49.815
3.78 --undefined-- 49.454
3.79 --undefined-- 48.965
3.80 --undefined-- 47.807
3.81 --undefined-- 45.804
3.82 --undefined-- 43.492
3.83 --undefined-- 41.445
3.84 --undefined-- 39.633
3.85 --undefined-- 38.508
3.86 --undefined-- 38.794
3.87 --undefined-- 38.779
3.88 --undefined-- 37.090
3.89 --undefined-- 36.842
3.90 --undefined-- 43.709
3.91 --undefined-- 51.870
3.92 --undefined-- 55.455
3.93 --undefined-- 54.431
3.94 --undefined-- 48.868
3.95 --undefined-- 40.098
3.96 --undefined-- 35.173
3.97 --undefined-- 34.879
3.98 --undefined-- 45.213
3.99 --undefined-- 57.109
4.00 --undefined-- 64.615
4.01 --undefined-- 67.975
4.02 --undefined-- 67.818
4.03 --undefined-- 66.301
4.04 113.016 68.218
4.05 112.526 70.756
4.06 101.821 72.175
4.07 97.992 72.575
4.08 98.353 72.227
4.09 95.535 71.373
4.10 94.826 70.062
4.11 90.246 67.820
4.12 90.304 63.828
4.13 --undefined-- 57.438
4.14 --undefined-- 48.689
4.15 --undefined-- 50.746
4.16 --undefined-- 58.796
4.17 --undefined-- 63.057
4.18 --undefined-- 65.807
4.19 --undefined-- 70.832
4.20 --undefined-- 74.984
4.21 114.962 76.845
4.22 113.069 77.381
4.23 110.033 77.470
4.24 108.736 76.895
4.25 105.843 75.700
4.26 105.554 74.356
4.27 104.233 73.079
4.28 103.291 71.896
4.29 103.024 69.892
4.30 --undefined-- 65.692
4.31 --undefined-- 58.013
4.32 --undefined-- 48.149
4.33 --undefined-- 42.075
4.34 --undefined-- 40.274
4.35 --undefined-- 45.302
4.36 --undefined-- 53.397
4.37 --undefined-- 60.147
4.38 --undefined-- 65.011
4.39 98.882 67.831
4.40 93.219 69.048
4.41 91.201 69.055
4.42 92.234 67.673
4.43 90.977 65.194
4.44 91.054 62.556
4.45 88.870 59.437
4.46 93.341 57.285
4.47 93.827 56.833
4.48 97.315 56.297
4.49 97.533 55.409
4.50 96.170 54.330
4.51 --undefined-- 53.931
4.52 --undefined-- 54.241
4.53 --undefined-- 56.035
4.54 --undefined-- 60.399
4.55 96.689 64.415
4.56 94.002 67.170
4.57 90.422 68.454
4.58 87.223 69.160
4.59 84.743 70.044
4.60 84.757 70.624
4.61 82.178 70.725
4.62 80.659 70.608
4.63 79.591 70.555
4.64 77.991 70.640
4.65 78.066 70.122
4.66 78.091 68.443
4.67 78.737 66.376
4.68 78.119 64.387
4.69 77.813 61.745
4.70 77.007 58.954
4.71 76.653 56.945
4.72 77.500 55.669
4.73 76.250 55.500
4.74 76.106 56.245
4.75 75.308 56.961
4.76 76.933 58.808
4.77 79.902 62.572
4.78 82.705 65.845
4.79 84.395 67.913
4.80 87.250 69.120
4.81 87.726 69.166
4.82 89.968 68.489
4.83 90.267 67.886
4.84 --undefined-- 66.217
4.85 --undefined-- 61.951
4.86 --undefined-- 55.362
4.87 --undefined-- 57.874
4.88 --undefined-- 62.609
4.89 --undefined-- 66.022
4.90 94.625 68.184
4.91 89.114 69.117
4.92 86.353 69.826
4.93 83.860 70.643
4.94 83.664 71.144
4.95 83.118 71.735
4.96 82.320 72.010
4.97 80.849 71.431
4.98 80.523 70.564
4.99 80.230 70.193
5.00 80.185 69.823
5.01 80.474 69.223
5.02 80.485 68.462
5.03 79.995 67.767
5.04 79.836 67.335
5.05 77.066 66.467
5.06 74.957 64.568
5.07 74.490 62.091
5.08 76.334 60.424
5.09 76.418 59.864
5.10 75.254 59.059
5.11 76.694 58.493
5.12 76.864 58.616
5.13 75.150 58.375
5.14 77.086 58.026
5.15 77.539 57.931
5.16 75.486 58.042
5.17 76.216 58.874
5.18 --undefined-- 59.686
5.19 --undefined-- 58.618
5.20 --undefined-- 55.037
5.21 --undefined-- 50.287
5.22 --undefined-- 48.154
5.23 --undefined-- 47.388
5.24 --undefined-- 46.671
5.25 --undefined-- --undefined--
5.26 --undefined-- --undefined--
5.27 --undefined-- --undefined--
5.28 --undefined-- --undefined--
