Time Pitch Intensity
0.01 --undefined-- --undefined--
0.02 195.389 --undefined--
0.03 195.284 --undefined--
0.04 195.776 --undefined--
0.05 196.094 62.954
0.06 193.776 63.244
0.07 191.315 62.115
0.08 --undefined-- 58.524
0.09 --undefined-- 52.410
0.10 --undefined-- 46.992
0.11 --undefined-- 51.650
0.12 --undefined-- 56.581
0.13 --undefined-- 58.716
0.14 --undefined-- 59.492
0.15 --undefined-- 63.687
0.16 --undefined-- 68.891
0.17 --undefined-- 71.095
0.18 --undefined-- 70.405
0.19 --undefined-- 67.940
0.20 --undefined-- 64.703
0.21 --undefined-- 60.951
0.22 --undefined-- 57.498
0.23 108.279 57.199
0.24 112.096 58.347
0.25 113.558 58.911
0.26 110.084 59.012
0.27 123.470 59.683
0.28 123.896 62.561
0.29 --undefined-- 67.235
0.30 --undefined-- 70.224
0.31 --undefined-- 71.127
0.32 138.967 71.084
0.33 141.121 70.841
0.34 143.340 70.838
0.35 145.007 71.210
0.36 146.452 71.718
0.37 146.338 72.090
0.38 145.417 72.058
0.39 143.572 71.816
0.40 141.093 71.516
0.41 138.990 71.125
0.42 137.535 70.779
0.43 136.470 70.111
0.44 135.471 68.577
0.45 134.382 65.941
0.46 --undefined-- 61.652
0.47 --undefined-- 55.482
0.48 --undefined-- 52.318
0.49 --undefined-- 51.353
0.50 --undefined-- 49.423
0.51 --undefined-- 54.680
0.52 --undefined-- 62.193
0.53 --undefined-- 65.423
0.54 --undefined-- 66.763
0.55 178.596 69.853
0.56 170.578 71.951
0.57 169.741 71.475
0.58 --undefined-- 68.133
0.59 --undefined-- 61.670
0.60 --undefined-- 55.487
0.61 --undefined-- 53.923
0.62 --undefined-- 51.712
0.63 --undefined-- 49.441
0.64 --undefined-- 50.394
0.65 --undefined-- 60.494
0.66 --undefined-- 68.562
0.67 --undefined-- 72.845
0.68 201.612 74.044
0.69 201.429 73.584
0.70 206.025 73.095
0.71 213.269 73.023
0.72 218.935 72.961
0.73 222.684 72.844
0.74 225.379 72.836
0.75 226.832 73.006
0.76 227.807 73.137
0.77 226.710 72.964
0.78 223.834 72.379
0.79 218.416 71.712
0.80 212.333 71.249
0.81 204.696 70.172
0.82 --undefined-- 67.551
0.83 --undefined-- 63.412
0.84 --undefined-- 59.287
0.85 149.044 58.567
0.86 148.749 58.283
0.87 142.699 56.411
0.88 137.836 55.651
0.89 --undefined-- 58.320
0.90 --undefined-- 62.868
0.91 134.818 67.657
0.92 136.668 71.085
0.93 139.110 72.338
0.94 140.921 72.003
0.95 143.938 71.416
0.96 148.114 71.397
0.97 151.249 71.584
0.98 153.368 71.681
0.99 153.397 71.852
1.00 151.671 71.573
1.01 --undefined-- 69.874
1.02 --undefined-- 66.454
1.03 --undefined-- 61.776
1.04 151.361 56.855
1.05 --undefined-- 52.961
1.06 --undefined-- 52.849
1.07 --undefined-- 59.371
1.08 129.361 65.871
1.09 128.950 69.192
1.10 124.056 69.372
1.11 120.860 67.411
1.12 119.011 65.789
1.13 --undefined-- 65.427
1.14 --undefined-- 64.332
1.15 --undefined-- 61.057
1.16 --undefined-- 56.452
1.17 --undefined-- 53.994
1.18 --undefined-- 53.269
1.19 --undefined-- 52.977
1.20 --undefined-- 56.952
1.21 --undefined-- 64.157
1.22 183.966 68.589
1.23 182.339 70.422
1.24 180.632 70.825
1.25 178.450 70.573
1.26 176.150 69.649
1.27 174.255 67.262
1.28 --undefined-- 62.362
1.29 161.293 56.157
1.30 157.107 56.613
1.31 151.763 59.630
1.32 --undefined-- 63.568
1.33 132.325 66.989
1.34 132.292 68.280
1.35 128.667 67.656
1.36 124.884 66.194
1.37 122.356 63.989
1.38 120.839 60.527
1.39 --undefined-- 56.601
1.40 --undefined-- 53.969
1.41 --undefined-- 52.480
1.42 --undefined-- 50.315
1.43 --undefined-- 46.752
1.44 --undefined-- 43.729
1.45 --undefined-- 43.246
1.46 --undefined-- 55.224
1.47 --undefined-- 65.061
1.48 --undefined-- 69.508
1.49 --undefined-- 69.595
1.50 --undefined-- 67.607
1.51 --undefined-- 67.532
1.52 --undefined-- 67.069
1.53 --undefined-- 64.898
1.54 --undefined-- 61.881
1.55 --undefined-- 58.708
1.56 --undefined-- 55.462
1.57 --undefined-- 53.703
1.58 --undefined-- 53.556
1.59 --undefined-- 54.293
1.60 --undefined-- 57.833
1.61 --undefined-- 62.213
1.62 --undefined-- 66.435
1.63 --undefined-- 68.658
1.64 --undefined-- 67.522
1.65 --undefined-- 62.475
1.66 --undefined-- 54.861
1.67 --undefined-- 52.158
1.68 --undefined-- 52.053
1.69 164.134 52.727
1.70 167.542 54.870
1.71 170.185 58.294
1.72 --undefined-- 60.360
1.73 --undefined-- 59.810
1.74 --undefined-- 56.566
1.75 --undefined-- 52.641
1.76 --undefined-- 51.791
1.77 --undefined-- 51.513
1.78 --undefined-- 50.834
1.79 --undefined-- 50.618
1.80 --undefined-- 50.206
1.81 --undefined-- 50.056
1.82 --undefined-- 51.496
1.83 --undefined-- 52.805
1.84 --undefined-- 53.330
1.85 --undefined-- 54.532
1.86 --undefined-- 57.070
1.87 116.936 59.469
1.88 116.423 61.547
1.89 117.186 63.038
1.90 117.252 64.280
1.91 122.557 65.568
1.92 126.539 66.374
1.93 129.311 66.833
1.94 133.236 67.665
1.95 136.443 68.794
1.96 139.797 69.613
1.97 141.195 69.983
1.98 140.104 69.774
1.99 137.828 68.781
2.00 --undefined-- 66.424
2.01 --undefined-- 62.203
2.02 --undefined-- 58.645
2.03 --undefined-- 58.886
2.04 --undefined-- 60.434
2.05 --undefined-- 62.323
2.06 --undefined-- 65.849
2.07 130.691 68.744
2.08 130.998 69.297
2.09 131.552 67.665
2.10 128.083 64.926
2.11 128.836 63.084
2.12 130.711 62.469
2.13 132.769 62.407
2.14 134.072 62.825
2.15 135.686 62.594
2.16 136.284 60.523
2.17 --undefined-- 55.926
2.18 --undefined-- 49.217
2.19 --undefined-- 44.306
2.20 --undefined-- 50.248
2.21 --undefined-- 60.266
2.22 --undefined-- 65.540
2.23 --undefined-- 66.432
2.24 --undefined-- 63.274
2.25 --undefined-- 59.589
2.26 --undefined-- 64.046
2.27 131.976 67.222
2.28 127.326 67.827
2.29 123.674 67.131
2.30 121.432 66.487
2.31 120.012 66.113
2.32 119.303 65.582
2.33 118.687 65.015
2.34 117.699 64.969
2.35 116.582 64.998
2.36 115.482 64.447
2.37 113.535 63.607
2.38 111.500 63.676
2.39 110.973 64.507
2.40 111.203 65.180
2.41 111.619 65.410
2.42 112.308 65.551
2.43 112.209 65.719
2.44 112.115 65.787
2.45 113.025 65.034
2.46 111.214 62.567
2.47 110.182 58.142
2.48 --undefined-- 52.078
2.49 --undefined-- 48.185
2.50 --undefined-- 48.209
2.51 --undefined-- 47.270
2.52 --undefined-- 46.386
2.53 --undefined-- 49.577
2.54 --undefined-- 52.397
2.55 --undefined-- 52.667
2.56 --undefined-- 51.920
2.57 --undefined-- 52.525
2.58 --undefined-- 53.798
2.59 --undefined-- 55.128
2.60 --undefined-- 57.393
2.61 --undefined-- 63.778
2.62 --undefined-- 68.895
2.63 108.393 70.469
2.64 108.787 69.092
2.65 106.591 66.306
2.66 103.844 63.885
2.67 108.581 62.759
2.68 113.947 62.469
2.69 120.601 62.763
2.70 122.347 64.347
2.71 128.919 66.382
2.72 130.530 67.753
2.73 131.809 68.344
2.74 131.288 68.274
2.75 130.910 67.272
2.76 130.084 65.256
2.77 130.068 62.654
2.78 129.433 60.507
2.79 129.569 60.398
2.80 130.853 61.746
2.81 131.767 63.190
2.82 133.702 64.577
2.83 136.108 65.937
2.84 140.595 67.372
2.85 147.386 68.653
2.86 151.319 69.773
2.87 157.427 70.828
2.88 160.992 71.520
2.89 162.162 71.884
2.90 161.238 72.380
2.91 159.269 73.062
2.92 161.826 73.082
2.93 154.298 72.223
2.94 147.705 71.775
2.95 144.012 71.949
2.96 140.922 71.553
2.97 138.157 70.047
2.98 136.514 66.989
2.99 142.548 61.821
3.00 140.080 55.268
3.01 --undefined-- 51.314
3.02 --undefined-- 50.289
3.03 --undefined-- 50.652
3.04 --undefined-- 51.361
3.05 --undefined-- 52.533
3.06 --undefined-- 53.737
3.07 --undefined-- 56.267
3.08 --undefined-- 60.254
3.09 112.891 62.294
3.10 112.808 62.595
3.11 112.801 62.042
3.12 110.309 61.356
3.13 113.520 60.949
3.14 112.920 59.658
3.15 --undefined-- 56.664
3.16 --undefined-- 52.741
3.17 --undefined-- 51.755
3.18 --undefined-- 52.254
3.19 --undefined-- 52.397
3.20 --undefined-- 57.265
3.21 --undefined-- 63.278
3.22 129.114 67.147
3.23 129.097 69.172
3.24 130.134 70.017
3.25 132.638 70.164
3.26 133.749 70.135
3.27 137.591 70.314
3.28 139.319 70.642
3.29 140.466 70.441
3.30 141.372 69.587
3.31 142.634 69.039
3.32 143.590 68.575
3.33 144.138 67.612
3.34 144.748 66.252
3.35 145.411 64.511
3.36 145.915 62.170
3.37 144.565 59.005
3.38 142.666 54.640
3.39 --undefined-- 49.612
3.40 --undefined-- 47.220
3.41 --undefined-- 46.594
3.42 --undefined-- 46.229
3.43 --undefined-- 46.410
3.44 --undefined-- 45.973
3.45 --undefined-- 45.021
3.46 --undefined-- 44.880
3.47 --undefined-- 45.291
3.48 --undefined-- 48.719
3.49 --undefined-- 55.506
3.50 --undefined-- 60.325
3.51 --undefined-- 65.955
3.52 --undefined-- 70.524
3.53 --undefined-- 71.974
3.54 114.572 71.081
3.55 116.151 70.260
3.56 117.747 70.086
3.57 119.162 69.547
3.58 122.729 69.449
3.59 124.517 70.137
3.60 125.488 70.789
3.61 125.205 71.025
3.62 122.270 70.525
3.63 122.528 68.615
3.64 123.500 66.159
3.65 123.014 64.981
3.66 120.703 63.388
3.67 --undefined-- 59.795
3.68 --undefined-- 56.026
3.69 --undefined-- 59.559
3.70 --undefined-- 62.632
3.71 --undefined-- 62.222
3.72 --undefined-- 59.518
3.73 --undefined-- 57.104
3.74 --undefined-- 54.759
3.75 --undefined-- 54.959
3.76 --undefined-- 61.192
3.77 --undefined-- 68.031
3.78 --undefined-- 71.585
3.79 --undefined-- 71.845
3.80 --undefined-- 69.381
3.81 --undefined-- 65.595
3.82 --undefined-- 61.526
3.83 --undefined-- 56.654
3.84 --undefined-- 51.968
3.85 --undefined-- 49.029
3.86 --undefined-- 47.191
3.87 --undefined-- 46.131
3.88 --undefined-- 45.764
3.89 --undefined-- 46.815
3.90 --undefined-- 51.993
3.91 --undefined-- 57.418
3.92 143.716 60.766
3.93 143.733 62.362
3.94 142.197 62.691
3.95 137.235 61.933
3.96 132.424 59.835
3.97 133.209 56.606
3.98 --undefined-- 54.120
3.99 --undefined-- 52.736
4.00 --undefined-- 57.162
4.01 --undefined-- 64.559
4.02 --undefined-- 69.367
4.03 117.142 71.301
4.04 116.863 71.163
4.05 115.921 70.126
4.06 115.428 68.776
4.07 115.374 66.862
4.08 114.655 64.188
4.09 113.980 61.444
4.10 --undefined-- 59.269
4.11 --undefined-- 55.839
4.12 --undefined-- 50.562
4.13 --undefined-- 55.390
4.14 --undefined-- 61.489
4.15 --undefined-- 62.873
4.16 --undefined-- 60.911
4.17 --undefined-- 63.466
4.18 --undefined-- 67.861
4.19 107.833 69.647
4.20 107.541 69.961
4.21 105.303 69.808
4.22 104.082 69.280
4.23 104.018 68.494
4.24 103.539 66.725
4.25 --undefined-- 63.490
4.26 --undefined-- 59.222
4.27 --undefined-- 54.064
4.28 --undefined-- 53.874
4.29 --undefined-- 57.923
4.30 --undefined-- 59.307
4.31 --undefined-- 60.236
4.32 --undefined-- 63.794
4.33 --undefined-- 66.079
4.34 --undefined-- 66.222
4.35 --undefined-- 65.668
4.36 --undefined-- 65.116
4.37 --undefined-- 62.784
4.38 --undefined-- 57.771
4.39 --undefined-- 51.351
4.40 --undefined-- 48.307
4.41 --undefined-- 48.267
4.42 --undefined-- 50.350
4.43 --undefined-- 53.204
4.44 --undefined-- 54.993
4.45 --undefined-- 54.739
4.46 --undefined-- 52.800
4.47 --undefined-- 53.769
4.48 --undefined-- 56.698
4.49 --undefined-- 58.561
4.50 --undefined-- 60.220
4.51 --undefined-- 61.201
4.52 --undefined-- 63.413
4.53 --undefined-- 68.045
4.54 --undefined-- 70.289
4.55 --undefined-- 69.395
4.56 --undefined-- 67.286
4.57 --undefined-- 65.909
4.58 --undefined-- 64.288
4.59 --undefined-- 62.790
4.60 --undefined-- 61.817
4.61 --undefined-- 60.769
4.62 --undefined-- 59.427
4.63 --undefined-- 57.853
4.64 --undefined-- 55.774
4.65 --undefined-- 53.524
4.66 --undefined-- 51.557
4.67 --undefined-- 50.024
4.68 --undefined-- 47.339
4.69 --undefined-- 42.989
4.70 --undefined-- 40.228
4.71 --undefined-- 40.151
4.72 --undefined-- 39.405
4.73 --undefined-- 38.764
4.74 --undefined-- 39.262
4.75 --undefined-- 39.191
4.76 --undefined-- 40.880
4.77 --undefined-- 46.780
4.78 --undefined-- 50.841
4.79 --undefined-- 55.925
4.80 --undefined-- 62.955
4.81 174.797 67.504
4.82 177.654 69.320
4.83 180.813 69.000
4.84 182.176 66.620
4.85 183.036 61.968
4.86 182.738 57.175
4.87 183.397 56.618
4.88 183.539 58.043
4.89 181.731 58.329
4.90 177.959 56.864
4.91 171.885 54.985
4.92 167.344 53.504
4.93 --undefined-- 52.920
4.94 --undefined-- 54.524
4.95 --undefined-- 57.482
4.96 --undefined-- 61.431
4.97 --undefined-- 65.083
4.98 147.235 67.710
4.99 148.294 69.051
5.00 149.503 70.064
5.01 154.601 71.746
5.02 159.723 73.332
5.03 165.544 73.957
5.04 171.497 73.839
5.05 175.524 73.697
5.06 177.595 73.365
5.07 176.229 --undefined--
5.08 170.616 --undefined--
5.09 --undefined-- --undefined--
5.10 --undefined-- --undefined--
