Time Pitch Intensity
0.01 --undefined-- --undefined--
0.02 133.246 --undefined--
0.03 133.477 --undefined--
0.04 132.048 --undefined--
0.05 142.373 65.680
0.06 149.111 67.639
0.07 154.834 68.995
0.08 163.314 70.137
0.09 171.708 71.267
0.10 177.676 72.009
0.11 182.498 72.023
0.12 186.209 71.296
0.13 189.797 70.485
0.14 194.996 70.390
0.15 190.762 70.140
0.16 189.379 69.426
0.17 190.104 69.276
0.18 189.338 69.495
0.19 187.576 69.144
0.20 185.758 68.549
0.21 184.610 68.277
0.22 184.566 68.029
0.23 184.806 67.462
0.24 184.735 66.393
0.25 184.314 64.909
0.26 184.600 63.226
0.27 184.162 61.221
0.28 181.012 58.642
0.29 181.946 55.838
0.30 184.357 53.212
0.31 184.734 50.497
0.32 179.988 47.827
0.33 --undefined-- 46.324
0.34 --undefined-- 46.742
0.35 --undefined-- 47.106
0.36 --undefined-- 46.242
0.37 --undefined-- 45.577
0.38 --undefined-- 45.613
0.39 --undefined-- 45.473
0.40 --undefined-- 45.251
0.41 --undefined-- 44.890
0.42 --undefined-- 44.551
0.43 --undefined-- 44.408
0.44 --undefined-- 44.790
0.45 --undefined-- 45.421
0.46 --undefined-- 45.057
0.47 --undefined-- 43.063
0.48 --undefined-- 39.097
0.49 --undefined-- 34.212
0.50 --undefined-- 31.154
0.51 --undefined-- 35.188
0.52 --undefined-- 46.693
0.53 --undefined-- 54.682
0.54 --undefined-- 59.371
0.55 124.055 62.281
0.56 127.267 64.757
0.57 129.707 67.087
0.58 135.614 68.823
0.59 140.497 69.842
0.60 143.856 70.387
0.61 147.457 70.617
0.62 152.333 70.768
0.63 155.157 70.894
0.64 153.234 70.113
0.65 144.238 67.609
0.66 144.134 63.982
0.67 149.315 60.786
0.68 147.843 57.880
0.69 144.262 54.823
0.70 --undefined-- 54.120
0.71 --undefined-- 58.649
0.72 152.309 63.195
0.73 147.118 65.656
0.74 144.021 66.346
0.75 136.885 66.077
0.76 133.639 65.662
0.77 131.818 65.639
0.78 131.194 65.843
0.79 130.013 65.716
0.80 131.406 65.675
0.81 135.274 66.558
0.82 142.094 67.504
0.83 145.997 67.919
0.84 154.735 68.228
0.85 163.809 68.648
0.86 165.895 69.815
0.87 162.424 71.145
0.88 162.150 71.328
0.89 165.418 70.778
0.90 170.282 70.273
0.91 173.462 69.653
0.92 175.670 69.032
0.93 176.069 68.331
0.94 173.063 66.688
0.95 172.189 63.723
0.96 172.372 59.734
0.97 173.069 54.990
0.98 175.101 50.000
0.99 --undefined-- 45.750
1.00 --undefined-- 44.064
1.01 --undefined-- 52.110
1.02 --undefined-- 59.967
1.03 --undefined-- 64.705
1.04 148.502 66.975
1.05 140.576 67.689
1.06 127.018 67.891
1.07 123.334 67.916
1.08 121.147 67.236
1.09 120.544 65.839
1.10 121.059 63.794
1.11 126.585 60.839
1.12 --undefined-- 57.385
1.13 --undefined-- 54.702
1.14 --undefined-- 51.990
1.15 --undefined-- 49.034
1.16 --undefined-- 46.844
1.17 --undefined-- 44.917
1.18 --undefined-- 44.818
1.19 --undefined-- 48.152
1.20 --undefined-- 51.859
1.21 --undefined-- 53.971
1.22 --undefined-- 57.810
1.23 --undefined-- 63.873
1.24 182.095 67.542
1.25 171.606 69.043
1.26 164.720 69.531
1.27 162.234 69.485
1.28 162.654 69.674
1.29 165.146 70.398
1.30 167.489 71.014
1.31 168.850 71.235
1.32 168.417 71.105
1.33 166.811 70.852
1.34 165.849 70.671
1.35 165.086 70.565
1.36 164.214 70.455
1.37 162.924 70.287
1.38 161.663 70.042
1.39 160.548 69.823
1.40 158.666 69.680
1.41 158.398 69.474
1.42 156.893 69.252
1.43 152.848 69.249
1.44 147.466 69.457
1.45 141.885 69.162
1.46 134.268 67.996
1.47 131.496 66.984
1.48 130.751 66.939
1.49 129.958 67.416
1.50 128.321 67.741
1.51 126.836 67.592
1.52 125.812 67.060
1.53 126.063 66.587
1.54 128.822 66.731
1.55 132.182 67.346
1.56 135.050 67.888
1.57 139.268 68.344
1.58 142.014 68.882
1.59 143.310 69.325
1.60 146.650 69.677
1.61 148.950 70.257
1.62 149.119 70.549
1.63 149.596 70.031
1.64 150.063 69.023
1.65 150.087 67.983
1.66 148.922 66.756
1.67 148.299 64.855
1.68 152.883 62.210
1.69 155.909 58.689
1.70 149.809 53.538
1.71 --undefined-- 46.913
1.72 --undefined-- 43.675
1.73 --undefined-- 43.131
1.74 --undefined-- 43.394
1.75 --undefined-- 44.133
1.76 --undefined-- 44.267
1.77 --undefined-- 44.398
1.78 --undefined-- 44.353
1.79 --undefined-- 43.471
1.80 --undefined-- 42.132
1.81 --undefined-- 40.691
1.82 --undefined-- 39.328
1.83 --undefined-- 38.051
1.84 --undefined-- 36.009
1.85 --undefined-- 33.730
1.86 --undefined-- 31.799
1.87 --undefined-- 29.819
1.88 --undefined-- 29.339
1.89 --undefined-- 29.555
1.90 --undefined-- 29.124
1.91 --undefined-- 28.811
1.92 --undefined-- 29.150
1.93 --undefined-- 29.445
1.94 --undefined-- 29.323
1.95 --undefined-- 31.511
1.96 --undefined-- 36.060
1.97 --undefined-- 39.838
1.98 --undefined-- 48.931
1.99 --undefined-- 58.422
2.00 --undefined-- 64.287
2.01 --undefined-- 67.258
2.02 140.867 68.305
2.03 135.286 68.723
2.04 126.033 69.053
2.05 119.029 68.977
2.06 117.175 68.473
2.07 116.240 67.308
2.08 117.088 65.187
2.09 116.561 63.039
2.10 115.551 61.605
2.11 114.729 60.883
2.12 119.728 61.059
2.13 124.702 62.299
2.14 129.934 64.428
2.15 126.426 66.539
2.16 117.175 67.735
2.17 111.086 67.864
2.18 109.322 67.277
2.19 108.916 66.669
2.20 108.440 66.365
2.21 108.252 65.871
2.22 108.040 65.386
2.23 107.842 65.481
2.24 107.231 65.829
2.25 106.864 65.864
2.26 106.823 65.687
2.27 107.163 65.708
2.28 107.549 65.946
2.29 107.907 66.120
2.30 108.113 66.051
2.31 105.871 65.765
2.32 101.593 65.243
2.33 91.464 64.226
2.34 --undefined-- 62.462
2.35 --undefined-- 60.326
2.36 --undefined-- 57.877
2.37 --undefined-- 53.515
2.38 --undefined-- 47.335
2.39 --undefined-- 42.794
2.40 --undefined-- 40.296
2.41 --undefined-- 38.696
2.42 --undefined-- 37.465
2.43 --undefined-- 36.217
2.44 --undefined-- 34.318
2.45 --undefined-- 33.007
2.46 --undefined-- 33.995
2.47 --undefined-- 35.460
2.48 --undefined-- 35.819
2.49 --undefined-- 35.935
2.50 --undefined-- 36.386
2.51 --undefined-- 37.284
2.52 --undefined-- 37.380
2.53 --undefined-- 42.022
2.54 --undefined-- 49.532
2.55 --undefined-- 54.638
2.56 --undefined-- 59.491
2.57 --undefined-- 62.812
2.58 128.030 63.923
2.59 129.321 64.146
2.60 129.496 64.419
2.61 128.173 64.606
2.62 127.229 64.604
2.63 125.775 64.505
2.64 124.100 64.413
2.65 123.405 64.328
2.66 123.277 64.370
2.67 123.535 64.669
2.68 123.571 65.233
2.69 122.764 65.948
2.70 121.856 66.752
2.71 120.346 67.442
2.72 118.748 67.616
2.73 117.916 67.215
2.74 117.211 66.628
2.75 116.963 66.305
2.76 117.991 66.314
2.77 120.591 66.538
2.78 123.697 66.782
2.79 128.417 66.853
2.80 133.797 66.921
2.81 138.003 67.133
2.82 145.897 67.427
2.83 152.614 67.542
2.84 156.073 66.634
2.85 152.045 64.090
2.86 168.959 60.465
2.87 177.238 57.272
2.88 172.531 54.347
2.89 163.206 50.654
2.90 --undefined-- 46.891
2.91 --undefined-- 49.717
2.92 --undefined-- 59.223
2.93 --undefined-- 65.714
2.94 --undefined-- 69.036
2.95 --undefined-- 70.108
2.96 --undefined-- 69.796
2.97 --undefined-- 68.643
2.98 --undefined-- 66.540
2.99 --undefined-- 62.929
3.00 --undefined-- 57.795
3.01 --undefined-- 53.740
3.02 --undefined-- 51.700
3.03 --undefined-- 48.295
3.04 --undefined-- 44.397
3.05 --undefined-- 46.018
3.06 --undefined-- 55.216
3.07 --undefined-- 61.135
3.08 102.542 63.780
3.09 110.237 64.700
3.10 115.518 65.077
3.11 120.518 65.171
3.12 122.748 65.221
3.13 123.590 65.320
3.14 124.172 65.250
3.15 124.432 65.069
3.16 124.066 64.764
3.17 124.516 64.154
3.18 124.874 63.266
3.19 124.617 62.830
3.20 127.015 63.555
3.21 128.790 65.072
3.22 129.001 66.616
3.23 126.800 67.427
3.24 125.717 67.701
3.25 123.186 67.999
3.26 120.621 67.972
3.27 115.589 67.291
3.28 111.536 66.476
3.29 107.988 65.749
3.30 107.370 64.770
3.31 105.067 63.473
3.32 104.138 61.197
3.33 101.965 57.372
3.34 105.660 52.500
3.35 --undefined-- 48.169
3.36 --undefined-- 44.752
3.37 --undefined-- 42.055
3.38 --undefined-- 40.285
3.39 --undefined-- 40.348
3.40 --undefined-- 43.757
3.41 --undefined-- 45.255
3.42 --undefined-- 44.071
3.43 --undefined-- 43.894
3.44 --undefined-- 45.455
3.45 --undefined-- 50.250
3.46 --undefined-- 56.726
3.47 143.618 61.372
3.48 142.188 64.377
3.49 148.918 66.260
3.50 155.023 67.378
3.51 159.699 68.113
3.52 165.286 68.774
3.53 170.431 69.401
3.54 178.946 69.810
3.55 186.728 69.936
3.56 191.416 70.503
3.57 194.423 71.665
3.58 195.607 72.154
3.59 195.115 71.412
3.60 191.252 70.231
3.61 182.034 69.827
3.62 169.730 70.230
3.63 155.844 70.463
3.64 152.120 70.204
3.65 137.462 70.023
3.66 132.718 70.047
3.67 128.823 69.761
3.68 127.547 68.913
3.69 127.838 67.856
3.70 132.300 67.277
3.71 140.532 67.279
3.72 147.581 67.910
3.73 150.459 68.578
3.74 154.064 68.946
3.75 155.598 68.599
3.76 155.308 66.824
3.77 155.999 63.391
3.78 162.163 58.807
3.79 160.129 53.742
3.80 158.059 49.143
3.81 --undefined-- 46.448
3.82 --undefined-- 45.229
3.83 --undefined-- 50.537
3.84 --undefined-- 58.998
3.85 176.016 64.216
3.86 164.210 66.788
3.87 149.709 67.816
3.88 124.681 67.871
3.89 114.307 66.914
3.90 104.635 65.503
3.91 100.440 64.510
3.92 93.296 63.566
3.93 89.530 62.682
3.94 84.367 62.735
3.95 83.798 63.140
3.96 84.387 63.111
3.97 87.446 62.725
3.98 89.477 62.540
3.99 95.386 63.311
4.00 106.507 64.394
4.01 109.718 65.290
4.02 116.403 65.982
4.03 120.022 66.218
4.04 129.474 66.214
4.05 133.085 66.729
4.06 139.173 67.661
4.07 146.024 68.425
4.08 151.778 68.951
4.09 155.051 69.414
4.10 158.700 69.760
4.11 165.502 69.840
4.12 169.079 70.001
4.13 172.996 70.124
4.14 177.631 70.177
4.15 179.324 70.200
4.16 179.603 69.773
4.17 179.429 68.330
4.18 177.469 65.568
4.19 174.683 62.175
4.20 176.293 58.666
4.21 177.155 54.701
4.22 178.742 50.461
4.23 178.031 46.792
4.24 --undefined-- 43.632
4.25 --undefined-- 40.391
4.26 --undefined-- 37.693
4.27 --undefined-- 42.340
4.28 --undefined-- 53.991
4.29 --undefined-- 61.836
4.30 --undefined-- 66.282
4.31 150.706 68.443
4.32 144.019 68.875
4.33 135.916 68.216
4.34 125.952 67.301
4.35 123.829 66.403
4.36 118.754 65.383
4.37 117.224 64.512
4.38 113.973 64.466
4.39 114.371 65.560
4.40 115.558 66.537
4.41 116.908 66.815
4.42 118.791 66.682
4.43 120.767 66.433
4.44 126.781 66.281
4.45 132.684 66.710
4.46 137.379 67.437
4.47 142.047 67.652
4.48 147.804 67.598
4.49 154.185 67.876
4.50 154.369 68.597
4.51 151.345 69.306
4.52 152.127 69.625
4.53 154.677 69.657
4.54 156.530 69.525
4.55 158.868 69.211
4.56 160.212 68.702
4.57 160.293 68.009
4.58 151.503 66.762
4.59 150.580 64.719
4.60 151.101 62.453
4.61 149.691 61.171
4.62 145.017 60.932
4.63 137.830 61.699
4.64 139.132 63.526
4.65 142.546 65.567
4.66 141.912 67.115
4.67 140.731 67.761
4.68 136.951 67.279
4.69 134.706 66.188
4.70 134.199 65.440
4.71 131.195 65.303
4.72 129.802 65.557
4.73 127.067 65.757
4.74 126.957 65.573
4.75 126.564 65.012
4.76 126.208 64.186
4.77 125.894 63.496
4.78 125.193 63.406
4.79 124.363 63.848
4.80 124.205 64.452
4.81 124.267 64.888
4.82 123.555 64.793
4.83 120.007 64.544
4.84 119.117 64.610
4.85 109.548 64.754
4.86 106.019 64.905
4.87 103.715 65.197
4.88 104.002 65.328
4.89 104.936 65.119
4.90 106.013 65.039
4.91 106.788 65.090
4.92 108.401 64.806
4.93 111.313 64.473
4.94 114.431 64.466
4.95 115.963 64.496
4.96 118.952 64.305
4.97 122.885 64.181
4.98 125.145 64.467
4.99 129.646 65.090
5.00 131.937 65.859
5.01 135.547 66.645
5.02 139.421 67.512
5.03 141.770 68.192
5.04 142.073 68.891
5.05 140.735 69.889
5.06 139.293 70.551
5.07 139.372 70.731
5.08 139.881 70.690
5.09 140.089 70.362
5.10 140.250 69.516
5.11 141.140 68.332
5.12 140.703 66.883
5.13 134.879 64.493
5.14 133.225 60.695
5.15 140.653 56.461
5.16 166.390 52.899
5.17 141.255 50.010
5.18 138.230 47.600
5.19 --undefined-- 46.174
5.20 --undefined-- 45.514
5.21 --undefined-- 45.444
5.22 --undefined-- 46.285
5.23 --undefined-- 54.016
5.24 --undefined-- 61.850
5.25 158.935 66.615
5.26 157.095 69.047
5.27 154.129 69.802
5.28 146.720 69.320
5.29 140.579 68.440
5.30 137.997 67.884
5.31 136.202 67.518
5.32 134.485 67.153
5.33 132.054 66.911
5.34 129.932 67.026
5.35 127.676 67.333
5.36 125.652 67.355
5.37 122.784 66.975
5.38 120.855 66.787
5.39 118.236 66.991
5.40 115.784 66.748
5.41 111.650 66.008
5.42 110.777 --undefined--
5.43 109.558 --undefined--
5.44 --undefined-- --undefined--
5.45 --undefined-- --undefined--
