Time Pitch Intensity
0.01 --undefined-- --undefined--
0.02 --undefined-- --undefined--
0.03 --undefined-- --undefined--
0.04 --undefined-- --undefined--
0.05 --undefined-- 52.662
0.06 --undefined-- 52.559
0.07 --undefined-- 51.475
0.08 --undefined-- 50.290
0.09 --undefined-- 49.819
0.10 --undefined-- 49.425
0.11 --undefined-- 48.651
0.12 --undefined-- 47.460
0.13 --undefined-- 45.526
0.14 --undefined-- 43.165
0.15 --undefined-- 42.365
0.16 --undefined-- 44.673
0.17 --undefined-- 46.770
0.18 --undefined-- 47.525
0.19 --undefined-- 47.652
0.20 --undefined-- 47.811
0.21 --undefined-- 48.791
0.22 --undefined-- 51.047
0.23 --undefined-- 53.810
0.24 --undefined-- 57.585
0.25 --undefined-- 63.861
0.26 --undefined-- 68.466
0.27 --undefined-- 70.432
0.28 --undefined-- 70.537
0.29 101.355 70.002
0.30 97.473 69.480
0.31 94.282 68.627
0.32 93.619 67.606
0.33 92.609 66.935
0.34 91.068 66.442
0.35 90.143 65.816
0.36 89.828 64.826
0.37 92.339 63.532
0.38 92.764 62.636
0.39 93.359 62.490
0.40 93.646 62.454
0.41 94.641 62.114
0.42 96.484 61.603
0.43 97.894 61.101
0.44 97.831 60.293
0.45 96.400 58.409
0.46 93.902 54.486
0.47 --undefined-- 47.974
0.48 --undefined-- 41.161
0.49 --undefined-- 38.717
0.50 --undefined-- 37.360
0.51 --undefined-- 36.146
0.52 --undefined-- 36.670
0.53 --undefined-- 36.199
0.54 --undefined-- 38.195
0.55 --undefined-- 51.412
0.56 --undefined-- 60.493
0.57 --undefined-- 66.157
0.58 --undefined-- 69.477
0.59 --undefined-- 70.880
0.60 101.988 70.585
0.61 100.899 68.858
0.62 98.958 66.593
0.63 97.900 64.464
0.64 98.207 62.296
0.65 98.569 60.185
0.66 100.748 58.676
0.67 98.161 57.804
0.68 98.549 57.110
0.69 97.617 56.083
0.70 98.788 53.897
0.71 --undefined-- 49.825
0.72 --undefined-- 43.685
0.73 --undefined-- 37.681
0.74 --undefined-- 33.737
0.75 --undefined-- 32.378
0.76 --undefined-- 34.171
0.77 --undefined-- 38.223
0.78 --undefined-- 42.308
0.79 --undefined-- 44.537
0.80 --undefined-- 46.262
0.81 --undefined-- 49.449
0.82 --undefined-- 52.121
0.83 --undefined-- 54.486
0.84 --undefined-- 57.244
0.85 --undefined-- 59.413
0.86 --undefined-- 60.721
0.87 --undefined-- 61.685
0.88 --undefined-- 62.168
0.89 103.636 61.838
0.90 104.406 61.332
0.91 104.553 61.020
0.92 110.682 60.931
0.93 111.504 60.673
0.94 115.680 59.958
0.95 119.286 58.618
0.96 124.354 56.562
0.97 127.804 53.534
0.98 --undefined-- 49.541
0.99 --undefined-- 45.908
1.00 --undefined-- 43.337
1.01 --undefined-- 41.147
1.02 --undefined-- 40.378
1.03 --undefined-- 43.633
1.04 --undefined-- 49.886
1.05 --undefined-- 56.032
1.06 --undefined-- 59.562
1.07 --undefined-- 61.712
1.08 --undefined-- 66.526
1.09 --undefined-- 70.842
1.10 --undefined-- 72.817
1.11 --undefined-- 72.943
1.12 --undefined-- 72.126
1.13 98.119 71.333
1.14 97.631 70.591
1.15 97.810 69.468
1.16 --undefined-- 68.040
1.17 92.598 66.121
1.18 108.791 63.632
1.19 --undefined-- 60.323
1.20 --undefined-- 54.887
1.21 --undefined-- 46.259
1.22 --undefined-- 37.644
1.23 --undefined-- 34.524
1.24 --undefined-- 34.478
1.25 --undefined-- 35.403
1.26 --undefined-- 36.374
1.27 --undefined-- 36.255
1.28 --undefined-- 35.378
1.29 --undefined-- 37.645
1.30 --undefined-- 41.590
1.31 --undefined-- 43.791
1.32 --undefined-- 44.834
1.33 --undefined-- 45.255
1.34 --undefined-- 44.921
1.35 --undefined-- 43.634
1.36 --undefined-- 41.917
1.37 --undefined-- 41.693
1.38 --undefined-- 42.859
1.39 --undefined-- 44.020
1.40 --undefined-- 45.133
1.41 --undefined-- 47.355
1.42 --undefined-- 50.480
1.43 --undefined-- 52.106
1.44 --undefined-- 52.958
1.45 --undefined-- 55.065
1.46 --undefined-- 60.580
1.47 --undefined-- 67.372
1.48 --undefined-- 71.071
1.49 113.689 72.015
1.50 112.116 71.756
1.51 110.001 71.369
1.52 --undefined-- 70.481
1.53 104.199 68.850
1.54 104.100 67.003
1.55 104.590 64.528
1.56 --undefined-- 60.072
1.57 --undefined-- 52.509
1.58 --undefined-- 41.916
1.59 --undefined-- 36.531
1.60 --undefined-- 35.790
1.61 --undefined-- 34.241
1.62 --undefined-- 33.039
1.63 --undefined-- 32.263
1.64 --undefined-- 31.717
1.65 --undefined-- 31.895
1.66 --undefined-- 32.356
1.67 --undefined-- 33.300
1.68 --undefined-- 34.466
1.69 --undefined-- 35.672
1.70 --undefined-- 41.530
1.71 --undefined-- 51.764
1.72 --undefined-- 57.753
1.73 --undefined-- 60.206
1.74 --undefined-- 61.758
1.75 --undefined-- 63.205
1.76 99.398 63.644
1.77 100.861 63.790
1.78 100.231 63.667
1.79 100.026 62.996
1.80 101.208 62.467
1.81 104.754 62.251
1.82 107.789 61.647
1.83 114.198 61.021
1.84 119.286 60.850
1.85 120.865 60.853
1.86 122.651 60.484
1.87 122.637 58.765
1.88 121.984 56.272
1.89 121.121 54.651
1.90 117.519 53.411
1.91 113.361 52.117
1.92 106.130 51.177
1.93 106.049 50.834
1.94 98.888 50.547
1.95 95.366 50.125
1.96 95.866 49.589
1.97 --undefined-- 48.667
1.98 --undefined-- 47.799
1.99 --undefined-- 47.859
2.00 --undefined-- 47.951
2.01 --undefined-- 47.416
2.02 --undefined-- 46.441
2.03 --undefined-- 45.017
2.04 --undefined-- 43.865
2.05 --undefined-- 43.538
2.06 --undefined-- 45.489
2.07 --undefined-- 50.327
2.08 --undefined-- 53.526
2.09 --undefined-- 54.554
2.10 --undefined-- 55.059
2.11 --undefined-- 56.568
2.12 --undefined-- 58.015
2.13 --undefined-- 58.486
2.14 --undefined-- 57.790
2.15 --undefined-- 56.312
2.16 --undefined-- 56.084
2.17 --undefined-- 58.110
2.18 --undefined-- 60.069
2.19 --undefined-- 63.553
2.20 --undefined-- 68.730
2.21 --undefined-- 71.596
2.22 --undefined-- 71.979
2.23 --undefined-- 71.031
2.24 --undefined-- 69.034
2.25 --undefined-- 64.866
2.26 --undefined-- 57.633
2.27 --undefined-- 48.668
2.28 --undefined-- 41.389
2.29 --undefined-- 39.449
2.30 --undefined-- 44.023
2.31 --undefined-- 49.470
2.32 --undefined-- 52.849
2.33 --undefined-- 55.747
2.34 --undefined-- 59.124
2.35 --undefined-- 61.800
2.36 --undefined-- 63.984
2.37 --undefined-- 66.223
2.38 --undefined-- 67.321
2.39 --undefined-- 65.938
2.40 --undefined-- 61.435
2.41 --undefined-- 53.397
2.42 --undefined-- 42.461
2.43 --undefined-- 37.492
2.44 --undefined-- 37.701
2.45 --undefined-- 44.343
2.46 --undefined-- 52.819
2.47 --undefined-- 56.726
2.48 --undefined-- 56.053
2.49 --undefined-- 51.424
2.50 --undefined-- 51.532
2.51 --undefined-- 56.576
2.52 --undefined-- 60.576
2.53 --undefined-- 64.359
2.54 --undefined-- 67.167
2.55 109.151 68.103
2.56 104.567 67.298
2.57 102.424 65.723
2.58 100.684 64.498
2.59 100.051 63.719
2.60 100.099 62.716
2.61 100.087 60.930
2.62 96.509 58.417
2.63 97.155 55.715
2.64 96.367 53.762
2.65 --undefined-- 52.763
2.66 --undefined-- 51.429
2.67 --undefined-- 51.787
2.68 --undefined-- 54.172
2.69 --undefined-- 55.787
2.70 --undefined-- 57.919
2.71 --undefined-- 60.831
2.72 83.002 62.198
2.73 79.379 62.256
2.74 --undefined-- 61.756
2.75 --undefined-- 59.874
2.76 --undefined-- 56.871
2.77 --undefined-- 54.167
2.78 --undefined-- 51.416
2.79 --undefined-- 48.890
2.80 --undefined-- 46.525
2.81 --undefined-- 43.678
2.82 --undefined-- 39.991
2.83 --undefined-- 38.100
2.84 --undefined-- 39.175
2.85 --undefined-- 40.095
2.86 --undefined-- 43.515
2.87 --undefined-- 47.085
2.88 --undefined-- 47.883
2.89 --undefined-- 46.916
2.90 --undefined-- 46.960
2.91 --undefined-- 47.959
2.92 --undefined-- 48.762
2.93 --undefined-- 49.019
2.94 --undefined-- 48.926
2.95 95.809 49.134
2.96 99.229 49.832
2.97 99.238 50.894
2.98 95.996 52.153
2.99 95.517 54.321
3.00 97.554 59.230
3.01 --undefined-- 64.177
3.02 --undefined-- 67.168
3.03 --undefined-- 68.425
3.04 92.795 68.668
3.05 92.624 68.568
3.06 92.303 67.775
3.07 92.597 65.830
3.08 92.611 64.150
3.09 91.448 62.667
3.10 91.335 59.857
3.11 --undefined-- 55.439
3.12 --undefined-- 50.876
3.13 --undefined-- 49.220
3.14 --undefined-- 48.964
3.15 --undefined-- 48.838
3.16 --undefined-- 49.036
3.17 --undefined-- 49.640
3.18 97.380 50.259
3.19 98.953 50.644
3.20 103.272 51.231
3.21 107.114 53.153
3.22 108.859 56.953
3.23 111.985 61.789
3.24 111.919 65.899
3.25 112.112 68.531
3.26 112.978 69.898
3.27 113.835 70.280
3.28 114.492 69.981
3.29 114.187 69.602
3.30 113.300 69.073
3.31 112.165 67.920
3.32 111.256 66.586
3.33 110.297 64.901
3.34 --undefined-- 61.924
3.35 --undefined-- 58.352
3.36 --undefined-- 56.280
3.37 --undefined-- 53.832
3.38 --undefined-- 49.045
3.39 --undefined-- 42.560
3.40 --undefined-- 37.761
3.41 --undefined-- 36.747
3.42 --undefined-- 36.583
3.43 --undefined-- 37.504
3.44 --undefined-- 38.951
3.45 --undefined-- 38.939
3.46 --undefined-- 39.370
3.47 --undefined-- 42.669
3.48 --undefined-- 45.888
3.49 --undefined-- 46.399
3.50 --undefined-- 44.644
3.51 --undefined-- 44.230
3.52 --undefined-- 44.898
3.53 --undefined-- 45.143
3.54 --undefined-- 45.231
3.55 --undefined-- 45.709
3.56 --undefined-- 46.600
3.57 --undefined-- 46.588
3.58 --undefined-- 46.327
3.59 --undefined-- 46.957
3.60 --undefined-- 47.138
3.61 --undefined-- 47.151
3.62 --undefined-- 47.513
3.63 --undefined-- 47.811
3.64 --undefined-- 48.054
3.65 --undefined-- 48.116
3.66 --undefined-- 47.930
3.67 --undefined-- 47.937
3.68 --undefined-- 47.781
3.69 --undefined-- 47.177
3.70 --undefined-- 46.995
3.71 --undefined-- 47.114
3.72 --undefined-- 46.983
3.73 --undefined-- 47.057
3.74 --undefined-- 46.736
3.75 --undefined-- 45.922
3.76 --undefined-- 45.604
3.77 --undefined-- 45.588
3.78 --undefined-- 45.895
3.79 --undefined-- 47.722
3.80 --undefined-- 50.939
3.81 97.677 53.667
3.82 94.577 55.270
3.83 94.367 56.737
3.84 90.760 58.551
3.85 91.110 59.734
3.86 92.346 60.224
3.87 93.958 60.271
3.88 94.622 59.998
3.89 95.146 59.626
3.90 94.991 59.130
3.91 94.883 58.636
3.92 90.992 58.640
3.93 90.157 59.005
3.94 90.014 59.453
3.95 90.352 59.377
3.96 89.675 58.553
3.97 90.129 58.123
3.98 89.144 58.245
3.99 88.426 57.838
4.00 88.076 56.875
4.01 90.264 56.050
4.02 90.139 55.973
4.03 88.251 55.961
4.04 89.167 55.819
4.05 89.655 55.901
4.06 89.970 55.920
4.07 90.535 55.616
4.08 90.463 54.712
4.09 90.188 52.542
4.10 --undefined-- 48.334
4.11 --undefined-- 41.985
4.12 --undefined-- 37.468
4.13 --undefined-- 37.671
4.14 --undefined-- 37.861
4.15 --undefined-- 37.789
4.16 --undefined-- 46.825
4.17 --undefined-- 56.627
4.18 --undefined-- 63.593
4.19 --undefined-- 68.003
4.20 --undefined-- 69.708
4.21 --undefined-- 68.386
4.22 --undefined-- 66.179
4.23 --undefined-- 67.728
4.24 108.185 69.130
4.25 102.382 68.881
4.26 101.390 67.716
4.27 104.751 66.340
4.28 103.212 64.904
4.29 103.191 63.325
4.30 104.219 61.986
4.31 105.047 61.112
4.32 105.176 60.558
4.33 103.574 60.017
4.34 --undefined-- 58.685
4.35 --undefined-- 55.046
4.36 --undefined-- 48.417
4.37 --undefined-- 46.085
4.38 --undefined-- 56.214
4.39 --undefined-- 64.243
4.40 --undefined-- 68.942
4.41 --undefined-- 70.644
4.42 --undefined-- 69.540
4.43 --undefined-- 67.936
4.44 --undefined-- 68.601
4.45 121.996 68.673
4.46 121.546 67.750
4.47 120.094 66.183
4.48 117.810 63.572
4.49 118.784 60.038
4.50 118.800 57.504
4.51 117.816 56.782
4.52 117.058 56.203
4.53 116.135 55.266
4.54 114.923 54.166
4.55 114.651 53.686
4.56 114.352 55.307
4.57 113.705 58.506
4.58 112.621 61.097
4.59 111.858 62.832
4.60 111.840 64.210
4.61 111.179 65.247
4.62 110.681 65.979
4.63 110.490 66.364
4.64 109.565 66.327
4.65 109.004 66.407
4.66 109.091 66.927
4.67 109.250 67.032
4.68 107.357 66.223
4.69 107.661 64.813
4.70 101.696 62.940
4.71 99.372 60.571
4.72 99.220 57.336
4.73 99.054 53.730
4.74 --undefined-- 51.144
4.75 --undefined-- 50.210
4.76 --undefined-- 51.724
4.77 92.005 54.085
4.78 93.887 55.803
4.79 99.047 57.353
4.80 98.424 58.814
4.81 98.643 59.822
4.82 99.268 60.342
4.83 98.746 60.535
4.84 98.352 60.464
4.85 96.853 60.452
4.86 97.111 60.606
4.87 97.923 60.638
4.88 97.970 60.556
4.89 97.257 60.067
4.90 95.856 58.251
4.91 --undefined-- 53.948
4.92 --undefined-- 46.691
4.93 --undefined-- 40.203
4.94 --undefined-- 38.174
4.95 --undefined-- 37.163
4.96 --undefined-- 40.625
4.97 --undefined-- 50.000
4.98 --undefined-- 58.055
4.99 --undefined-- 64.544
5.00 --undefined-- 68.584
5.01 --undefined-- 69.754
5.02 89.967 68.629
5.03 91.667 66.177
5.04 91.911 63.217
5.05 92.805 60.833
5.06 93.159 59.695
5.07 98.672 58.667
5.08 98.730 56.230
5.09 --undefined-- 51.567
5.10 --undefined-- 44.221
5.11 --undefined-- 38.369
5.12 --undefined-- 46.314
5.13 --undefined-- 55.761
5.14 --undefined-- 61.460
5.15 --undefined-- 65.754
5.16 --undefined-- 69.386
5.17 114.719 70.849
5.18 114.451 69.797
5.19 --undefined-- 66.200
5.20 --undefined-- 59.515
5.21 --undefined-- 49.493
5.22 --undefined-- 42.359
5.23 --undefined-- 39.465
5.24 --undefined-- 38.541
5.25 --undefined-- 39.731
5.26 --undefined-- 43.610
5.27 --undefined-- 46.828
5.28 --undefined-- 49.016
5.29 --undefined-- 52.519
5.30 --undefined-- 56.052
5.31 --undefined-- 58.940
5.32 --undefined-- 60.267
5.33 --undefined-- 59.850
5.34 --undefined-- 59.051
5.35 --undefined-- 59.664
5.36 --undefined-- 61.269
5.37 --undefined-- 61.871
5.38 --undefined-- 61.192
5.39 --undefined-- 60.917
5.40 --undefined-- 60.946
5.41 --undefined-- 60.582
5.42 --undefined-- 60.110
5.43 87.991 58.799
5.44 88.140 57.299
5.45 85.891 55.920
5.46 --undefined-- 54.549
5.47 --undefined-- 53.070
5.48 --undefined-- 50.677
5.49 --undefined-- 47.217
5.50 --undefined-- 42.346
5.51 --undefined-- 36.544
5.52 --undefined-- 33.169
5.53 --undefined-- 33.654
5.54 --undefined-- 37.915
5.55 --undefined-- 42.310
5.56 --undefined-- 46.303
5.57 --undefined-- 50.830
5.58 --undefined-- 55.897
5.59 --undefined-- 62.960
5.60 --undefined-- 68.224
5.61 --undefined-- 70.807
5.62 --undefined-- 71.375
5.63 --undefined-- 69.962
5.64 --undefined-- 66.070
5.65 --undefined-- 59.460
5.66 --undefined-- 49.984
5.67 --undefined-- 41.011
5.68 --undefined-- 38.220
5.69 --undefined-- 37.018
5.70 --undefined-- 36.428
5.71 --undefined-- 35.062
5.72 --undefined-- 40.320
5.73 --undefined-- 49.681
5.74 --undefined-- 55.009
5.75 --undefined-- 58.824
5.76 --undefined-- 62.919
5.77 --undefined-- 65.622
5.78 --undefined-- 66.685
5.79 --undefined-- 67.212
5.80 87.294 67.721
5.81 86.912 67.117
5.82 --undefined-- 64.597
5.83 --undefined-- 61.629
5.84 --undefined-- 59.301
5.85 --undefined-- 54.438
5.86 --undefined-- 46.652
5.87 --undefined-- 40.362
5.88 --undefined-- 36.904
5.89 --undefined-- 34.073
5.90 --undefined-- 32.554
5.91 --undefined-- 33.277
5.92 --undefined-- 34.848
5.93 --undefined-- 35.714
5.94 --undefined-- 37.517
5.95 --undefined-- 40.586
5.96 --undefined-- 42.054
5.97 --undefined-- 41.397
5.98 --undefined-- 39.999
5.99 --undefined-- 40.355
6.00 --undefined-- 43.190
6.01 --undefined-- 45.402
6.02 --undefined-- 46.208
6.03 --undefined-- 46.131
6.04 --undefined-- 45.756
6.05 --undefined-- 45.668
6.06 --undefined-- --undefined--
6.07 --undefined-- --undefined--
6.08 --undefined-- --undefined--
6.09 --undefined-- --undefined--
