Time Pitch Intensity
0.01 --undefined-- --undefined--
0.02 157.109 --undefined--
0.03 149.548 --undefined--
0.04 142.644 --undefined--
0.05 138.658 73.427
0.06 135.888 73.797
0.07 133.105 73.071
0.08 130.842 71.402
0.09 126.288 69.494
0.10 118.895 67.078
0.11 115.500 63.291
0.12 --undefined-- 57.723
0.13 --undefined-- 51.758
0.14 --undefined-- 48.892
0.15 --undefined-- 47.399
0.16 --undefined-- 46.205
0.17 --undefined-- 46.055
0.18 --undefined-- 46.663
0.19 --undefined-- 52.326
0.20 --undefined-- 59.726
0.21 122.790 63.804
0.22 98.815 65.143
0.23 95.800 65.154
0.24 92.961 65.012
0.25 106.402 65.577
0.26 97.415 66.721
0.27 98.359 67.496
0.28 108.506 68.136
0.29 111.886 67.978
0.30 112.502 65.944
0.31 108.164 61.838
0.32 105.068 56.869
0.33 --undefined-- 52.092
0.34 --undefined-- 46.974
0.35 --undefined-- 43.318
0.36 --undefined-- 44.772
0.37 --undefined-- 52.805
0.38 --undefined-- 61.280
0.39 149.891 66.896
0.40 143.196 70.456
0.41 143.606 72.768
0.42 142.701 74.068
0.43 141.086 74.606
0.44 140.316 74.790
0.45 140.735 74.871
0.46 141.147 74.852
0.47 141.539 74.745
0.48 141.962 74.625
0.49 143.068 74.540
0.50 144.011 74.421
0.51 144.450 74.076
0.52 144.484 73.268
0.53 143.506 71.615
0.54 141.935 68.696
0.55 --undefined-- 64.568
0.56 --undefined-- 59.627
0.57 --undefined-- 55.054
0.58 --undefined-- 53.280
0.59 --undefined-- 49.858
0.60 --undefined-- 43.724
0.61 --undefined-- 39.851
0.62 --undefined-- 39.710
0.63 --undefined-- 39.648
0.64 --undefined-- 40.194
0.65 --undefined-- 40.689
0.66 --undefined-- 39.425
0.67 --undefined-- 38.236
0.68 --undefined-- 40.161
0.69 --undefined-- 40.793
0.70 --undefined-- 39.287
0.71 --undefined-- 38.934
0.72 --undefined-- 39.768
0.73 --undefined-- 40.413
0.74 --undefined-- 40.515
0.75 --undefined-- 40.997
0.76 --undefined-- 42.602
0.77 --undefined-- 43.721
0.78 --undefined-- 44.077
0.79 --undefined-- 44.450
0.80 --undefined-- 45.053
0.81 --undefined-- 45.089
0.82 --undefined-- 44.535
0.83 --undefined-- 44.079
0.84 --undefined-- 43.229
0.85 --undefined-- 42.193
0.86 --undefined-- 41.206
0.87 --undefined-- 40.905
0.88 --undefined-- 44.445
0.89 --undefined-- 46.894
0.90 --undefined-- 45.767
0.91 --undefined-- 41.926
0.92 --undefined-- 39.231
0.93 --undefined-- 38.803
0.94 --undefined-- 43.043
0.95 --undefined-- 49.071
0.96 --undefined-- 52.796
0.97 --undefined-- 54.390
0.98 --undefined-- 55.614
0.99 --undefined-- 57.050
1.00 --undefined-- 57.554
1.01 --undefined-- 57.555
1.02 --undefined-- 57.029
1.03 --undefined-- 58.982
1.04 145.374 65.295
1.05 139.262 69.644
1.06 128.465 71.631
1.07 127.732 72.310
1.08 127.744 72.555
1.09 127.326 72.506
1.10 123.167 72.054
1.11 117.977 72.072
1.12 120.036 73.147
1.13 123.337 74.025
1.14 125.699 74.201
1.15 127.741 73.945
1.16 128.745 73.608
1.17 128.687 73.358
1.18 128.647 72.968
1.19 127.113 71.919
1.20 123.194 69.554
1.21 110.782 65.394
1.22 110.976 59.846
1.23 --undefined-- 56.339
1.24 --undefined-- 58.281
1.25 --undefined-- 59.338
1.26 --undefined-- 58.686
1.27 --undefined-- 59.615
1.28 107.804 64.239
1.29 118.734 67.989
1.30 121.102 69.605
1.31 121.433 70.268
1.32 121.234 71.490
1.33 122.042 72.905
1.34 122.599 73.875
1.35 120.937 74.644
1.36 119.914 75.417
1.37 119.067 75.803
1.38 117.276 75.601
1.39 116.400 75.170
1.40 115.476 74.855
1.41 114.723 74.310
1.42 115.792 73.404
1.43 118.137 72.760
1.44 119.857 72.773
1.45 121.528 72.847
1.46 121.170 72.258
1.47 121.131 71.049
1.48 120.837 70.543
1.49 123.939 71.841
1.50 128.526 73.700
1.51 128.225 75.043
1.52 128.609 75.910
1.53 127.794 76.026
1.54 125.074 75.451
1.55 124.907 75.056
1.56 125.280 74.940
1.57 128.356 74.578
1.58 135.420 74.032
1.59 143.188 73.504
1.60 146.960 72.914
1.61 148.007 71.722
1.62 --undefined-- 69.146
1.63 82.586 67.185
1.64 188.358 70.178
1.65 192.969 73.817
1.66 193.819 75.392
1.67 182.501 75.499
1.68 178.050 75.397
1.69 175.226 74.941
1.70 175.128 73.303
1.71 173.730 69.490
1.72 --undefined-- 62.506
1.73 --undefined-- 52.410
1.74 --undefined-- 44.945
1.75 --undefined-- 41.048
1.76 --undefined-- 38.434
1.77 --undefined-- 38.160
1.78 --undefined-- 39.338
1.79 --undefined-- 39.344
1.80 --undefined-- 38.911
1.81 --undefined-- 38.654
1.82 --undefined-- 40.876
1.83 --undefined-- 49.381
1.84 --undefined-- 58.751
1.85 166.276 65.892
1.86 141.690 70.551
1.87 140.065 73.416
1.88 135.028 74.955
1.89 132.902 75.463
1.90 131.073 75.087
1.91 126.839 74.201
1.92 124.180 74.139
1.93 127.054 74.564
1.94 125.883 74.330
1.95 125.083 73.625
1.96 122.009 72.384
1.97 116.096 70.245
1.98 110.614 67.082
1.99 --undefined-- 63.030
2.00 159.944 63.696
2.01 138.552 69.056
2.02 130.589 72.750
2.03 125.863 74.479
2.04 121.881 74.780
2.05 117.591 74.299
2.06 115.262 72.881
2.07 109.425 70.429
2.08 106.485 67.456
2.09 98.959 63.780
2.10 86.488 59.102
2.11 --undefined-- 55.363
2.12 --undefined-- 54.618
2.13 --undefined-- 54.339
2.14 --undefined-- 53.781
2.15 --undefined-- 55.997
2.16 114.760 60.431
2.17 113.187 63.781
2.18 98.697 65.532
2.19 98.811 66.353
2.20 99.086 66.875
2.21 99.138 67.212
2.22 99.283 67.484
2.23 103.185 68.244
2.24 107.233 69.446
2.25 112.531 70.597
2.26 118.337 71.631
2.27 122.949 72.329
2.28 130.230 72.517
2.29 132.193 72.469
2.30 137.452 72.637
2.31 141.910 72.897
2.32 142.790 72.946
2.33 140.877 72.841
2.34 138.069 72.630
2.35 137.276 72.395
2.36 128.380 71.856
2.37 123.387 71.152
2.38 119.412 70.891
2.39 117.318 71.000
2.40 114.851 71.144
2.41 114.123 71.028
2.42 112.233 70.768
2.43 112.283 70.803
2.44 114.500 71.441
2.45 116.126 72.404
2.46 117.391 73.213
2.47 117.959 73.529
2.48 118.357 73.343
2.49 119.056 72.901
2.50 121.709 72.381
2.51 125.218 71.762
2.52 127.600 70.886
2.53 128.363 69.675
2.54 --undefined-- 68.064
2.55 --undefined-- 65.665
2.56 --undefined-- 62.201
2.57 --undefined-- 58.311
2.58 --undefined-- 54.160
2.59 --undefined-- 48.717
2.60 --undefined-- 43.794
2.61 --undefined-- 41.156
2.62 --undefined-- 38.848
2.63 --undefined-- 37.011
2.64 --undefined-- 37.488
2.65 --undefined-- 38.720
2.66 --undefined-- 39.602
2.67 --undefined-- 39.966
2.68 --undefined-- 39.203
2.69 --undefined-- 37.984
2.70 --undefined-- 37.737
2.71 --undefined-- 37.916
2.72 --undefined-- 37.910
2.73 --undefined-- 38.166
2.74 --undefined-- 38.724
2.75 --undefined-- 38.111
2.76 --undefined-- 35.975
2.77 --undefined-- 34.531
2.78 --undefined-- 35.537
2.79 --undefined-- 37.266
2.80 --undefined-- 37.635
2.81 --undefined-- 37.593
2.82 --undefined-- 40.924
2.83 --undefined-- 44.493
2.84 --undefined-- 46.302
2.85 --undefined-- 47.996
2.86 --undefined-- 53.878
2.87 --undefined-- 62.653
2.88 145.421 68.997
2.89 132.609 72.799
2.90 132.170 74.827
2.91 136.689 75.918
2.92 142.197 76.417
2.93 155.435 76.371
2.94 163.022 76.362
2.95 170.208 76.633
2.96 174.987 76.822
2.97 175.265 76.816
2.98 175.023 76.805
2.99 174.518 76.995
3.00 166.657 77.660
3.01 158.797 78.487
3.02 150.693 78.564
3.03 141.766 77.895
3.04 136.462 77.117
3.05 134.658 76.744
3.06 134.623 76.716
3.07 133.681 76.812
3.08 131.384 76.566
3.09 127.824 75.308
3.10 126.390 72.700
3.11 115.403 69.254
3.12 105.878 65.207
3.13 99.613 60.208
3.14 85.624 58.149
3.15 108.487 62.843
3.16 114.142 66.973
3.17 113.458 69.255
3.18 109.677 70.590
3.19 114.882 71.620
3.20 --undefined-- 72.409
3.21 --undefined-- 73.366
3.22 --undefined-- 74.440
3.23 --undefined-- 75.396
3.24 143.209 75.718
3.25 142.671 75.365
3.26 153.491 75.409
3.27 155.544 75.966
3.28 153.685 76.273
3.29 150.977 76.478
3.30 142.320 76.812
3.31 137.851 76.735
3.32 130.112 75.924
3.33 125.310 74.523
3.34 117.102 72.830
3.35 111.687 71.184
3.36 107.181 69.820
3.37 106.119 69.138
3.38 106.177 69.012
3.39 102.639 68.652
3.40 99.182 67.765
3.41 94.902 66.546
3.42 93.654 65.736
3.43 97.770 65.715
3.44 94.431 65.467
3.45 100.295 64.786
3.46 --undefined-- 63.479
3.47 --undefined-- 61.298
3.48 --undefined-- 59.077
3.49 --undefined-- 55.526
3.50 --undefined-- 52.422
3.51 --undefined-- 51.037
3.52 --undefined-- 47.234
3.53 --undefined-- 41.435
3.54 --undefined-- 37.981
3.55 --undefined-- 36.807
3.56 --undefined-- 35.658
3.57 --undefined-- 34.898
3.58 --undefined-- 36.098
3.59 --undefined-- 44.516
3.60 --undefined-- 55.282
3.61 151.297 63.192
3.62 132.217 68.311
3.63 130.513 71.698
3.64 135.432 74.262
3.65 139.042 76.063
3.66 140.816 77.133
3.67 143.411 77.688
3.68 146.723 77.340
3.69 142.792 75.085
3.70 139.439 70.069
3.71 145.180 62.460
3.72 --undefined-- 57.427
3.73 --undefined-- 59.341
3.74 213.975 66.175
3.75 201.947 72.297
3.76 189.098 75.566
3.77 178.093 76.969
3.78 171.439 77.677
3.79 169.846 77.620
3.80 169.690 76.836
3.81 170.951 75.995
3.82 168.920 75.433
3.83 170.512 74.914
3.84 173.490 74.312
3.85 171.638 73.420
3.86 168.347 71.837
3.87 165.238 69.900
3.88 170.974 69.700
3.89 178.910 71.397
3.90 179.655 72.871
3.91 174.781 73.742
3.92 168.531 74.370
3.93 164.010 74.556
3.94 159.320 73.550
3.95 145.181 72.126
3.96 145.960 71.912
3.97 143.178 72.116
3.98 139.241 72.554
3.99 132.337 73.605
4.00 127.430 74.335
4.01 123.648 74.119
4.02 115.824 73.220
4.03 110.449 71.716
4.04 106.507 70.138
4.05 103.847 69.211
4.06 101.536 68.232
4.07 101.043 65.842
4.08 101.546 61.218
4.09 --undefined-- 54.037
4.10 --undefined-- 47.304
4.11 --undefined-- 49.515
4.12 --undefined-- 52.259
4.13 --undefined-- 53.023
4.14 --undefined-- 51.641
4.15 --undefined-- 48.647
4.16 --undefined-- 46.515
4.17 --undefined-- 46.950
4.18 --undefined-- 55.762
4.19 --undefined-- 64.341
4.20 141.570 69.389
4.21 126.549 71.749
4.22 123.164 72.687
4.23 120.089 73.249
4.24 119.613 73.609
4.25 119.178 73.772
4.26 118.054 73.797
4.27 116.446 73.670
4.28 115.583 73.435
4.29 115.151 72.897
4.30 114.257 71.242
4.31 --undefined-- 67.201
4.32 --undefined-- 60.021
4.33 --undefined-- 51.318
4.34 --undefined-- 47.340
4.35 --undefined-- 43.417
4.36 --undefined-- 39.900
4.37 --undefined-- 37.937
4.38 --undefined-- 38.415
4.39 --undefined-- 44.500
4.40 --undefined-- 48.057
4.41 --undefined-- 47.574
4.42 --undefined-- 43.519
4.43 --undefined-- 39.017
4.44 --undefined-- 40.465
4.45 --undefined-- 41.603
4.46 --undefined-- 39.749
4.47 --undefined-- 35.691
4.48 --undefined-- 36.491
4.49 --undefined-- 47.224
4.50 --undefined-- 55.733
4.51 --undefined-- 60.227
4.52 --undefined-- 61.115
4.53 --undefined-- 59.237
4.54 --undefined-- 56.838
4.55 --undefined-- 58.582
4.56 172.777 65.593
4.57 173.082 70.926
4.58 155.460 73.370
4.59 150.795 73.773
4.60 145.838 74.230
4.61 150.569 75.550
4.62 150.579 76.399
4.63 148.866 76.538
4.64 145.203 76.255
4.65 140.761 75.652
4.66 135.476 74.653
4.67 131.999 73.526
4.68 119.177 73.334
4.69 117.737 73.697
4.70 111.428 73.335
4.71 107.003 72.113
4.72 102.729 70.298
4.73 100.268 67.779
4.74 99.856 63.907
4.75 --undefined-- 57.963
4.76 --undefined-- 49.719
4.77 --undefined-- 41.900
4.78 --undefined-- 39.600
4.79 --undefined-- 45.624
4.80 --undefined-- 53.252
4.81 --undefined-- 57.132
4.82 --undefined-- 57.294
4.83 --undefined-- 54.991
4.84 --undefined-- 53.264
4.85 --undefined-- 55.506
4.86 --undefined-- 61.198
4.87 --undefined-- 65.108
4.88 100.102 66.467
4.89 101.544 66.483
4.90 99.369 66.292
4.91 98.620 66.335
4.92 98.422 66.834
4.93 98.537 67.609
4.94 101.757 68.792
4.95 107.222 70.233
4.96 112.481 71.776
4.97 115.976 73.150
4.98 118.561 73.660
4.99 122.667 73.253
5.00 128.283 73.013
5.01 131.595 73.462
5.02 133.664 73.615
5.03 134.498 72.851
5.04 133.118 71.330
5.05 --undefined-- 69.420
5.06 --undefined-- 66.932
5.07 --undefined-- 63.799
5.08 --undefined-- 60.460
5.09 --undefined-- 56.220
5.10 --undefined-- 49.453
5.11 --undefined-- 42.857
5.12 --undefined-- 40.886
5.13 --undefined-- 39.228
5.14 --undefined-- 38.705
5.15 --undefined-- 39.340
5.16 --undefined-- 38.184
5.17 --undefined-- 36.542
5.18 --undefined-- 36.137
5.19 --undefined-- 36.149
5.20 --undefined-- 36.682
5.21 --undefined-- 38.428
5.22 --undefined-- 39.175
5.23 --undefined-- 38.485
5.24 --undefined-- 37.452
5.25 --undefined-- 36.738
5.26 --undefined-- 37.234
5.27 --undefined-- 39.497
5.28 --undefined-- 41.131
5.29 --undefined-- 40.715
5.30 --undefined-- 39.159
5.31 --undefined-- 38.597
5.32 --undefined-- 39.937
5.33 --undefined-- 41.080
5.34 --undefined-- 40.851
5.35 --undefined-- 40.066
5.36 --undefined-- 39.415
5.37 --undefined-- 39.309
5.38 --undefined-- 39.506
5.39 --undefined-- 39.028
5.40 --undefined-- 41.512
5.41 --undefined-- 45.130
5.42 --undefined-- 45.338
5.43 --undefined-- 42.325
5.44 --undefined-- 40.876
5.45 --undefined-- 43.464
5.46 --undefined-- 45.688
5.47 --undefined-- 46.274
5.48 --undefined-- 47.968
5.49 --undefined-- 56.802
5.50 --undefined-- 65.688
5.51 177.966 71.732
5.52 162.958 75.354
5.53 160.344 77.243
5.54 160.502 78.040
5.55 162.077 78.413
5.56 163.301 78.770
5.57 163.721 79.060
5.58 164.402 79.359
5.59 165.757 79.800
5.60 168.105 80.434
5.61 170.519 81.044
5.62 171.119 81.152
5.63 170.876 80.589
5.64 170.389 79.535
5.65 168.678 78.034
5.66 164.067 75.575
5.67 158.526 71.578
5.68 --undefined-- 65.685
5.69 --undefined-- 58.787
5.70 --undefined-- 53.228
5.71 --undefined-- 55.445
5.72 --undefined-- 57.837
5.73 --undefined-- 57.300
5.74 --undefined-- 56.811
5.75 --undefined-- 60.599
5.76 --undefined-- 67.895
5.77 --undefined-- 73.318
5.78 149.684 76.279
5.79 146.638 76.901
5.80 --undefined-- 75.230
5.81 --undefined-- 72.533
5.82 --undefined-- 69.757
5.83 --undefined-- 65.185
5.84 --undefined-- 61.422
5.85 137.757 64.851
5.86 129.969 67.603
5.87 122.758 68.475
5.88 120.444 68.293
5.89 119.688 67.981
5.90 119.366 68.112
5.91 121.416 68.889
5.92 121.992 70.017
5.93 120.377 70.905
5.94 118.101 71.381
5.95 116.797 71.702
5.96 116.030 71.780
5.97 115.300 71.681
5.98 113.979 71.568
5.99 110.577 71.604
6.00 110.223 71.794
6.01 110.328 71.995
6.02 111.668 71.928
6.03 116.147 71.689
6.04 119.049 71.683
6.05 119.588 71.707
6.06 119.044 71.546
6.07 118.844 71.107
6.08 117.911 --undefined--
6.09 114.554 --undefined--
6.10 --undefined-- --undefined--
6.11 --undefined-- --undefined--
