Time Pitch Intensity
0.01 --undefined-- --undefined--
0.02 209.555 --undefined--
0.03 210.761 --undefined--
0.04 212.815 --undefined--
0.05 215.257 76.333
0.06 216.843 76.359
0.07 218.226 76.141
0.08 219.224 74.476
0.09 220.414 70.363
0.10 217.176 63.475
0.11 216.789 56.046
0.12 217.829 51.357
0.13 --undefined-- 47.644
0.14 --undefined-- 43.303
0.15 --undefined-- 41.280
0.16 --undefined-- 42.971
0.17 --undefined-- 52.323
0.18 279.101 62.253
0.19 285.147 68.500
0.20 279.192 71.828
0.21 281.331 73.207
0.22 285.144 73.556
0.23 284.480 73.067
0.24 279.493 71.643
0.25 270.066 69.223
0.26 261.225 65.847
0.27 250.605 61.553
0.28 --undefined-- 56.444
0.29 --undefined-- 52.298
0.30 --undefined-- 49.781
0.31 --undefined-- 48.371
0.32 --undefined-- 47.032
0.33 --undefined-- 45.664
0.34 --undefined-- 45.121
0.35 --undefined-- 45.214
0.36 --undefined-- 45.689
0.37 --undefined-- 46.785
0.38 --undefined-- 51.760
0.39 --undefined-- 61.948
0.40 285.248 69.479
0.41 275.808 73.695
0.42 272.362 75.495
0.43 269.799 76.090
0.44 265.782 76.338
0.45 263.087 76.536
0.46 260.930 76.706
0.47 258.391 76.739
0.48 256.194 76.501
0.49 254.981 75.835
0.50 253.648 74.379
0.51 249.597 71.352
0.52 236.715 66.015
0.53 --undefined-- 58.532
0.54 127.915 54.458
0.55 127.849 54.448
0.56 118.048 55.342
0.57 --undefined-- 60.767
0.58 --undefined-- 67.413
0.59 --undefined-- 71.074
0.60 --undefined-- 71.822
0.61 169.305 71.328
0.62 174.048 71.592
0.63 180.140 72.266
0.64 182.593 72.411
0.65 181.648 71.973
0.66 175.703 71.359
0.67 172.661 71.036
0.68 174.052 70.988
0.69 177.183 70.922
0.70 182.314 70.951
0.71 188.514 71.069
0.72 194.124 70.969
0.73 201.879 71.114
0.74 209.049 72.354
0.75 214.549 73.808
0.76 219.290 74.650
0.77 223.205 74.997
0.78 227.274 74.822
0.79 231.108 73.661
0.80 233.484 70.806
0.81 229.513 65.575
0.82 232.764 58.486
0.83 --undefined-- 53.302
0.84 --undefined-- 50.201
0.85 --undefined-- 47.459
0.86 --undefined-- 45.692
0.87 --undefined-- 45.176
0.88 --undefined-- 44.998
0.89 --undefined-- 44.950
0.90 --undefined-- 45.129
0.91 --undefined-- 45.170
0.92 --undefined-- 47.599
0.93 --undefined-- 53.241
0.94 --undefined-- 57.977
0.95 --undefined-- 60.472
0.96 --undefined-- 60.740
0.97 --undefined-- 61.749
0.98 232.511 65.854
0.99 223.563 68.716
1.00 219.853 69.627
1.01 214.321 69.837
1.02 210.863 70.509
1.03 201.503 71.628
1.04 194.818 72.702
1.05 188.483 73.611
1.06 181.590 74.241
1.07 174.392 74.482
1.08 172.210 74.446
1.09 171.174 74.322
1.10 170.845 74.326
1.11 170.796 74.517
1.12 170.756 74.630
1.13 170.481 74.214
1.14 167.421 73.098
1.15 167.021 72.230
1.16 173.006 72.358
1.17 176.624 72.755
1.18 183.650 73.665
1.19 192.360 75.168
1.20 194.522 76.140
1.21 196.750 76.316
1.22 199.459 76.328
1.23 202.714 76.342
1.24 205.353 76.214
1.25 208.456 76.033
1.26 211.049 75.815
1.27 212.443 75.333
1.28 212.923 74.259
1.29 212.962 72.583
1.30 215.103 70.631
1.31 211.658 68.280
1.32 207.027 64.655
1.33 209.600 58.865
1.34 --undefined-- 50.670
1.35 --undefined-- 43.339
1.36 --undefined-- 40.404
1.37 --undefined-- 40.882
1.38 --undefined-- 41.156
1.39 --undefined-- 41.464
1.40 --undefined-- 47.492
1.41 --undefined-- 58.927
1.42 --undefined-- 67.682
1.43 260.626 72.932
1.44 253.525 75.339
1.45 251.543 76.107
1.46 251.243 76.425
1.47 251.966 76.719
1.48 252.942 76.957
1.49 254.323 77.026
1.50 254.245 76.790
1.51 253.859 76.183
1.52 253.225 75.316
1.53 252.985 74.370
1.54 252.876 73.445
1.55 252.811 72.577
1.56 253.844 71.717
1.57 254.717 70.810
1.58 255.937 69.774
1.59 259.469 68.466
1.60 262.821 66.858
1.61 259.772 64.921
1.62 256.164 62.640
1.63 257.487 59.596
1.64 256.737 55.287
1.65 --undefined-- 51.426
1.66 --undefined-- 50.361
1.67 --undefined-- 49.753
1.68 --undefined-- 48.643
1.69 --undefined-- 47.470
1.70 --undefined-- 46.813
1.71 --undefined-- 47.257
1.72 --undefined-- 49.135
1.73 --undefined-- 51.682
1.74 --undefined-- 53.287
1.75 --undefined-- 53.607
1.76 --undefined-- 54.504
1.77 --undefined-- 60.713
1.78 160.757 66.434
1.79 158.805 69.519
1.80 156.571 70.781
1.81 162.946 71.244
1.82 162.557 71.418
1.83 147.242 71.262
1.84 149.545 70.691
1.85 140.388 69.254
1.86 157.154 67.420
1.87 155.201 66.245
1.88 169.401 66.266
1.89 162.944 66.913
1.90 163.216 67.146
1.91 170.242 66.891
1.92 187.752 66.711
1.93 185.472 66.874
1.94 197.750 67.315
1.95 206.043 68.995
1.96 211.310 71.734
1.97 213.738 74.024
1.98 180.663 75.388
1.99 171.063 76.068
2.00 160.561 75.838
2.01 155.789 74.256
2.02 --undefined-- 71.004
2.03 --undefined-- 65.614
2.04 --undefined-- 58.337
2.05 --undefined-- 52.653
2.06 --undefined-- 49.550
2.07 --undefined-- 46.790
2.08 --undefined-- 45.092
2.09 --undefined-- 43.767
2.10 --undefined-- 43.026
2.11 --undefined-- 43.013
2.12 --undefined-- 43.326
2.13 --undefined-- 45.176
2.14 --undefined-- 49.556
2.15 --undefined-- 51.464
2.16 --undefined-- 50.682
2.17 --undefined-- 51.089
2.18 --undefined-- 53.391
2.19 --undefined-- 55.383
2.20 --undefined-- 60.552
2.21 --undefined-- 67.877
2.22 210.075 72.397
2.23 206.585 74.359
2.24 199.994 75.168
2.25 186.248 75.613
2.26 175.668 75.615
2.27 170.350 75.383
2.28 166.175 74.905
2.29 --undefined-- 73.658
2.30 --undefined-- 71.136
2.31 --undefined-- 66.336
2.32 --undefined-- 58.162
2.33 --undefined-- 49.886
2.34 --undefined-- 47.062
2.35 --undefined-- 46.952
2.36 --undefined-- 53.248
2.37 --undefined-- 59.416
2.38 --undefined-- 64.171
2.39 --undefined-- 68.183
2.40 159.255 71.210
2.41 172.716 73.527
2.42 179.850 75.124
2.43 181.843 75.668
2.44 180.104 75.672
2.45 173.888 75.544
2.46 165.812 74.311
2.47 160.771 70.740
2.48 --undefined-- 63.978
2.49 165.851 55.455
2.50 164.473 52.002
2.51 --undefined-- 49.467
2.52 --undefined-- 47.166
2.53 --undefined-- 46.726
2.54 --undefined-- 46.932
2.55 --undefined-- 46.060
2.56 --undefined-- 46.507
2.57 --undefined-- 53.909
2.58 --undefined-- 62.931
2.59 --undefined-- 70.112
2.60 --undefined-- 74.218
2.61 183.509 75.735
2.62 179.733 75.559
2.63 176.014 74.872
2.64 173.683 74.835
2.65 171.929 75.381
2.66 171.319 75.780
2.67 170.324 75.457
2.68 171.195 74.264
2.69 173.130 72.541
2.70 176.745 70.389
2.71 178.218 68.349
2.72 176.420 67.791
2.73 177.880 68.251
2.74 183.550 69.006
2.75 193.567 70.214
2.76 207.479 71.978
2.77 225.982 73.802
2.78 235.883 75.231
2.79 239.547 76.546
2.80 242.418 77.688
2.81 244.932 78.337
2.82 245.541 78.460
2.83 244.972 78.063
2.84 243.028 77.105
2.85 242.134 75.616
2.86 241.305 73.935
2.87 241.912 72.139
2.88 241.791 69.553
2.89 239.707 65.382
2.90 243.178 59.829
2.91 242.836 55.385
2.92 244.610 53.224
2.93 --undefined-- 55.365
2.94 --undefined-- 58.603
2.95 --undefined-- 59.929
2.96 --undefined-- 60.113
2.97 --undefined-- 60.704
2.98 --undefined-- 63.975
2.99 197.572 68.235
3.00 185.606 71.129
3.01 173.144 73.366
3.02 164.469 75.056
3.03 152.469 75.665
3.04 147.522 75.449
3.05 145.921 74.819
3.06 145.849 73.640
3.07 145.003 72.241
3.08 140.821 70.667
3.09 133.333 68.381
3.10 107.396 65.857
3.11 75.571 63.567
3.12 --undefined-- 60.781
3.13 --undefined-- 55.797
3.14 --undefined-- 49.340
3.15 --undefined-- 46.433
3.16 --undefined-- 46.712
3.17 --undefined-- 48.522
3.18 --undefined-- 50.106
3.19 --undefined-- 50.839
3.20 --undefined-- 50.487
3.21 --undefined-- 49.849
3.22 --undefined-- 50.002
3.23 --undefined-- 50.315
3.24 --undefined-- 50.360
3.25 --undefined-- 50.893
3.26 --undefined-- 51.719
3.27 --undefined-- 51.703
3.28 --undefined-- 50.785
3.29 --undefined-- 49.507
3.30 --undefined-- 48.307
3.31 --undefined-- 47.840
3.32 --undefined-- 47.788
3.33 --undefined-- 47.327
3.34 --undefined-- 46.258
3.35 --undefined-- 44.518
3.36 --undefined-- 43.093
3.37 --undefined-- 43.128
3.38 --undefined-- 43.715
3.39 --undefined-- 44.620
3.40 --undefined-- 46.383
3.41 --undefined-- 49.510
3.42 --undefined-- 52.507
3.43 --undefined-- 53.061
3.44 --undefined-- 51.220
3.45 --undefined-- 50.767
3.46 --undefined-- 56.423
3.47 --undefined-- 66.631
3.48 152.909 73.814
3.49 151.558 77.437
3.50 150.163 78.416
3.51 298.691 78.036
3.52 297.369 77.530
3.53 294.921 77.010
3.54 292.108 75.810
3.55 284.272 73.748
3.56 282.030 71.731
3.57 280.208 70.279
3.58 275.928 69.270
3.59 272.449 68.931
3.60 268.812 68.698
3.61 263.121 68.000
3.62 257.813 66.653
3.63 249.578 64.242
3.64 242.123 60.731
3.65 216.850 56.990
3.66 --undefined-- 53.579
3.67 --undefined-- 50.659
3.68 --undefined-- 49.042
3.69 --undefined-- 48.123
3.70 --undefined-- 47.894
3.71 --undefined-- 50.139
3.72 --undefined-- 57.953
3.73 211.058 64.943
3.74 199.306 69.360
3.75 196.831 71.935
3.76 196.163 73.305
3.77 194.233 73.989
3.78 190.780 74.261
3.79 186.909 74.177
3.80 182.799 73.885
3.81 178.281 73.732
3.82 175.554 73.887
3.83 172.860 74.068
3.84 171.557 74.095
3.85 170.187 73.913
3.86 169.373 73.613
3.87 167.450 73.271
3.88 165.303 72.942
3.89 164.198 72.680
3.90 162.518 72.312
3.91 160.604 71.720
3.92 157.940 70.847
3.93 155.051 69.872
3.94 153.160 69.281
3.95 152.459 68.985
3.96 152.022 68.572
3.97 151.235 68.078
3.98 149.253 67.539
3.99 148.357 66.999
4.00 148.973 67.058
4.01 150.518 68.164
4.02 152.241 69.944
4.03 154.525 71.924
4.04 156.873 73.602
4.05 158.279 74.786
4.06 158.916 75.458
4.07 159.357 75.617
4.08 158.628 75.416
4.09 158.214 75.170
4.10 159.054 75.116
4.11 159.997 75.205
4.12 159.770 75.030
4.13 157.481 74.059
4.14 157.788 72.797
4.15 166.444 72.778
4.16 170.048 73.376
4.17 175.593 73.716
4.18 181.746 74.241
4.19 184.320 75.136
4.20 185.069 75.748
4.21 186.745 75.972
4.22 187.847 75.893
4.23 188.895 75.487
4.24 190.171 74.911
4.25 191.033 74.483
4.26 191.468 74.370
4.27 192.119 74.387
4.28 191.345 74.294
4.29 189.821 73.947
4.30 187.156 73.398
4.31 183.683 72.781
4.32 181.159 72.170
4.33 178.365 71.274
4.34 169.914 69.464
4.35 165.383 65.917
4.36 171.531 60.669
4.37 --undefined-- 54.706
4.38 --undefined-- 51.988
4.39 --undefined-- 54.188
4.40 --undefined-- 61.522
4.41 --undefined-- 68.598
4.42 --undefined-- 72.483
4.43 177.155 73.804
4.44 168.546 73.485
4.45 161.867 72.329
4.46 157.826 70.306
4.47 153.221 66.918
4.48 151.678 62.442
4.49 158.180 58.515
4.50 --undefined-- 54.698
4.51 --undefined-- 50.276
4.52 --undefined-- 46.835
4.53 --undefined-- 44.172
4.54 --undefined-- 42.305
4.55 --undefined-- 41.492
4.56 --undefined-- 41.617
4.57 --undefined-- 41.320
4.58 --undefined-- 43.044
4.59 --undefined-- 47.675
4.60 --undefined-- 51.740
4.61 --undefined-- 57.430
4.62 --undefined-- 65.384
4.63 171.978 71.035
4.64 169.951 73.971
4.65 166.305 74.610
4.66 161.783 73.394
4.67 154.953 70.937
4.68 155.077 69.538
4.69 156.086 70.197
4.70 156.098 70.771
4.71 155.698 70.862
4.72 155.474 70.866
4.73 155.133 70.831
4.74 154.976 70.734
4.75 155.385 70.672
4.76 157.107 70.427
4.77 157.529 69.425
4.78 154.761 67.086
4.79 154.138 63.196
4.80 163.642 59.208
4.81 156.899 56.642
4.82 --undefined-- 54.847
4.83 --undefined-- 57.540
4.84 --undefined-- 63.927
4.85 205.012 68.524
4.86 191.699 69.503
4.87 183.357 66.848
4.88 --undefined-- 60.655
4.89 --undefined-- 52.126
4.90 --undefined-- 49.947
4.91 --undefined-- 52.021
4.92 --undefined-- 57.601
4.93 --undefined-- 63.183
4.94 --undefined-- 68.042
4.95 174.664 72.120
4.96 166.323 73.958
4.97 155.170 73.910
4.98 150.272 73.108
4.99 147.309 72.374
5.00 148.983 71.823
5.01 148.969 70.568
5.02 145.904 67.538
5.03 138.732 62.026
5.04 166.126 55.398
5.05 164.115 55.028
5.06 155.023 57.446
5.07 146.030 60.602
5.08 --undefined-- 65.961
5.09 176.640 70.307
5.10 170.946 72.517
5.11 165.015 73.111
5.12 159.423 73.033
5.13 158.001 72.672
5.14 158.895 72.270
5.15 159.723 72.231
5.16 160.165 72.292
5.17 160.646 72.177
5.18 160.716 71.908
5.19 161.300 71.613
5.20 161.618 71.445
5.21 162.479 71.299
5.22 163.853 71.098
5.23 164.292 70.777
5.24 164.317 70.129
5.25 161.147 68.763
5.26 158.124 66.360
5.27 154.698 63.325
5.28 154.447 60.063
5.29 159.684 56.202
5.30 --undefined-- 55.536
5.31 --undefined-- --undefined--
5.32 --undefined-- --undefined--
5.33 --undefined-- --undefined--
5.34 --undefined-- --undefined--
