Time Pitch Intensity
0.01 --undefined-- --undefined--
0.02 233.885 --undefined--
0.03 235.192 --undefined--
0.04 235.914 --undefined--
0.05 235.937 70.849
0.06 233.856 71.097
0.07 230.118 71.289
0.08 226.357 71.741
0.09 224.424 72.508
0.10 222.798 73.246
0.11 216.534 73.464
0.12 208.340 73.287
0.13 202.817 72.927
0.14 196.752 71.975
0.15 189.460 70.326
0.16 181.558 68.661
0.17 173.137 67.308
0.18 --undefined-- 66.056
0.19 --undefined-- 65.471
0.20 110.979 65.293
0.21 112.166 65.117
0.22 --undefined-- 65.066
0.23 --undefined-- 65.228
0.24 --undefined-- 66.587
0.25 200.125 68.886
0.26 213.266 71.192
0.27 222.251 72.715
0.28 223.242 73.108
0.29 222.582 72.536
0.30 220.670 71.058
0.31 220.647 68.390
0.32 224.846 64.024
0.33 222.724 57.890
0.34 222.318 51.436
0.35 223.169 47.833
0.36 --undefined-- 46.377
0.37 --undefined-- 46.343
0.38 --undefined-- 46.555
0.39 --undefined-- 46.329
0.40 --undefined-- 46.116
0.41 --undefined-- 46.113
0.42 --undefined-- 46.213
0.43 --undefined-- 46.406
0.44 --undefined-- 46.472
0.45 --undefined-- 46.663
0.46 --undefined-- 47.089
0.47 --undefined-- 47.481
0.48 --undefined-- 47.367
0.49 --undefined-- 46.716
0.50 --undefined-- 46.290
0.51 --undefined-- 46.209
0.52 --undefined-- 45.324
0.53 --undefined-- 43.388
0.54 --undefined-- 41.138
0.55 --undefined-- 39.043
0.56 --undefined-- 38.017
0.57 --undefined-- 37.982
0.58 --undefined-- 37.809
0.59 --undefined-- 39.402
0.60 --undefined-- 43.289
0.61 --undefined-- 48.438
0.62 --undefined-- 54.006
0.63 --undefined-- 59.161
0.64 --undefined-- 66.045
0.65 222.723 71.025
0.66 205.960 73.243
0.67 194.420 73.714
0.68 191.722 73.482
0.69 189.081 72.664
0.70 183.581 70.502
0.71 173.256 66.445
0.72 162.869 61.272
0.73 169.291 56.683
0.74 --undefined-- 55.875
0.75 --undefined-- 63.257
0.76 188.700 69.019
0.77 190.190 72.189
0.78 187.908 73.267
0.79 182.106 73.006
0.80 175.946 72.670
0.81 173.185 72.748
0.82 171.475 72.820
0.83 170.421 72.605
0.84 168.387 72.153
0.85 166.371 71.627
0.86 164.575 70.869
0.87 161.191 69.657
0.88 155.752 67.855
0.89 150.555 65.841
0.90 149.482 64.466
0.91 150.408 63.938
0.92 156.585 65.279
0.93 162.125 67.954
0.94 164.472 70.386
0.95 165.730 72.106
0.96 165.486 73.060
0.97 163.723 73.425
0.98 162.487 73.530
0.99 161.145 73.509
1.00 159.915 73.265
1.01 157.825 72.768
1.02 156.447 72.344
1.03 156.736 72.049
1.04 156.008 71.496
1.05 153.317 70.567
1.06 151.432 69.236
1.07 150.362 67.387
1.08 149.130 65.632
1.09 149.337 64.983
1.10 147.692 64.819
1.11 145.651 64.801
1.12 142.552 64.946
1.13 140.179 65.051
1.14 139.520 64.974
1.15 139.779 64.796
1.16 140.844 64.767
1.17 141.935 64.985
1.18 145.568 65.209
1.19 147.504 64.880
1.20 147.875 63.607
1.21 153.516 61.284
1.22 --undefined-- 57.523
1.23 --undefined-- 52.900
1.24 --undefined-- 52.405
1.25 --undefined-- 55.187
1.26 --undefined-- 59.994
1.27 212.603 66.308
1.28 214.953 70.484
1.29 214.022 72.278
1.30 213.895 72.661
1.31 213.111 72.426
1.32 211.112 71.721
1.33 205.791 70.782
1.34 202.435 70.305
1.35 204.344 70.359
1.36 204.545 70.457
1.37 204.367 70.569
1.38 204.999 70.673
1.39 205.871 70.631
1.40 205.787 70.377
1.41 205.360 69.720
1.42 203.033 68.145
1.43 197.748 65.060
1.44 190.689 60.296
1.45 188.976 57.153
1.46 --undefined-- 58.418
1.47 --undefined-- 59.577
1.48 212.289 62.898
1.49 196.097 67.131
1.50 181.749 69.455
1.51 171.210 70.556
1.52 158.228 71.244
1.53 151.279 71.309
1.54 148.463 71.028
1.55 146.528 71.046
1.56 149.085 71.555
1.57 153.488 72.510
1.58 156.289 73.246
1.59 158.258 73.137
1.60 160.172 72.090
1.61 167.007 71.172
1.62 181.822 71.830
1.63 188.597 72.925
1.64 192.612 73.518
1.65 194.509 73.706
1.66 194.659 73.535
1.67 195.038 73.176
1.68 195.369 72.746
1.69 193.105 71.848
1.70 --undefined-- 69.986
1.71 --undefined-- 66.884
1.72 --undefined-- 62.557
1.73 --undefined-- 57.044
1.74 --undefined-- 50.369
1.75 --undefined-- 44.851
1.76 --undefined-- 42.719
1.77 --undefined-- 41.600
1.78 --undefined-- 40.347
1.79 --undefined-- 38.983
1.80 --undefined-- 37.988
1.81 --undefined-- 37.325
1.82 --undefined-- 37.443
1.83 --undefined-- 48.138
1.84 --undefined-- 59.031
1.85 --undefined-- 65.489
1.86 169.601 68.654
1.87 176.658 69.684
1.88 174.205 69.280
1.89 166.993 67.430
1.90 159.824 63.749
1.91 161.614 57.952
1.92 169.325 51.489
1.93 165.697 48.406
1.94 --undefined-- 50.242
1.95 --undefined-- 59.835
1.96 --undefined-- 67.719
1.97 230.154 71.904
1.98 220.916 73.199
1.99 218.668 72.913
2.00 218.706 72.144
2.01 217.768 71.039
2.02 215.852 70.156
2.03 217.725 70.174
2.04 214.262 70.365
2.05 209.709 70.510
2.06 205.839 70.702
2.07 201.919 70.882
2.08 201.890 71.256
2.09 186.655 71.670
2.10 180.351 71.582
2.11 174.967 71.000
2.12 169.691 70.678
2.13 167.211 70.843
2.14 166.041 71.029
2.15 165.581 71.059
2.16 164.614 70.234
2.17 162.457 67.712
2.18 169.102 63.663
2.19 175.497 58.925
2.20 --undefined-- 53.810
2.21 --undefined-- 55.181
2.22 --undefined-- 61.877
2.23 --undefined-- 67.773
2.24 --undefined-- 70.849
2.25 165.047 71.645
2.26 164.195 70.943
2.27 160.227 69.566
2.28 159.327 68.454
2.29 81.488 67.830
2.30 77.832 67.762
2.31 147.986 67.745
2.32 147.255 67.462
2.33 146.375 66.702
2.34 145.328 65.492
2.35 77.048 65.100
2.36 78.326 65.314
2.37 78.167 65.447
2.38 77.823 65.081
2.39 77.599 63.688
2.40 79.729 61.545
2.41 77.141 58.642
2.42 80.643 54.514
2.43 --undefined-- 50.610
2.44 --undefined-- 47.828
2.45 --undefined-- 45.577
2.46 --undefined-- 48.770
2.47 --undefined-- 58.221
2.48 --undefined-- 66.486
2.49 --undefined-- 71.069
2.50 176.658 72.670
2.51 163.677 72.658
2.52 158.314 72.326
2.53 156.250 71.893
2.54 153.391 70.976
2.55 --undefined-- 69.015
2.56 --undefined-- 65.170
2.57 --undefined-- 58.614
2.58 --undefined-- 50.145
2.59 --undefined-- 45.983
2.60 --undefined-- 44.490
2.61 --undefined-- 42.496
2.62 --undefined-- 40.592
2.63 --undefined-- 38.875
2.64 --undefined-- 38.184
2.65 --undefined-- 39.719
2.66 --undefined-- 44.100
2.67 --undefined-- 49.463
2.68 --undefined-- 53.757
2.69 --undefined-- 55.604
2.70 --undefined-- 58.811
2.71 210.862 65.238
2.72 203.852 69.549
2.73 197.214 71.693
2.74 194.026 72.533
2.75 191.048 72.592
2.76 187.658 72.292
2.77 184.867 71.945
2.78 183.781 71.500
2.79 180.837 70.960
2.80 180.447 70.851
2.81 181.304 70.988
2.82 179.860 70.919
2.83 179.789 70.901
2.84 179.812 71.060
2.85 179.232 71.117
2.86 177.794 70.849
2.87 175.090 70.149
2.88 170.446 68.833
2.89 164.270 66.507
2.90 157.724 62.839
2.91 190.676 58.373
2.92 195.567 54.902
2.93 181.762 56.568
2.94 --undefined-- 64.015
2.95 194.083 70.236
2.96 189.580 73.435
2.97 186.584 74.020
2.98 183.531 73.385
2.99 181.328 72.989
3.00 179.990 72.991
3.01 177.878 73.108
3.02 176.451 73.223
3.03 175.276 73.275
3.04 174.118 73.371
3.05 172.104 73.401
3.06 168.852 72.674
3.07 165.685 70.454
3.08 158.175 67.152
3.09 152.897 65.117
3.10 145.177 64.166
3.11 --undefined-- 62.155
3.12 --undefined-- 58.638
3.13 --undefined-- 54.768
3.14 --undefined-- 50.882
3.15 --undefined-- 46.496
3.16 --undefined-- 43.046
3.17 --undefined-- 40.499
3.18 --undefined-- 38.620
3.19 --undefined-- 38.793
3.20 --undefined-- 42.006
3.21 --undefined-- 45.789
3.22 --undefined-- 47.315
3.23 --undefined-- 46.622
3.24 --undefined-- 44.476
3.25 --undefined-- 42.643
3.26 --undefined-- 42.236
3.27 --undefined-- 42.348
3.28 --undefined-- 42.744
3.29 --undefined-- 43.555
3.30 --undefined-- 44.451
3.31 --undefined-- 44.817
3.32 --undefined-- 45.168
3.33 --undefined-- 45.991
3.34 --undefined-- 47.150
3.35 --undefined-- 48.488
3.36 --undefined-- 49.275
3.37 --undefined-- 49.423
3.38 --undefined-- 49.403
3.39 --undefined-- 49.514
3.40 --undefined-- 50.223
3.41 --undefined-- 50.666
3.42 --undefined-- 49.927
3.43 --undefined-- 48.882
3.44 --undefined-- 48.382
3.45 --undefined-- 48.136
3.46 --undefined-- 47.907
3.47 --undefined-- 47.370
3.48 --undefined-- 46.772
3.49 --undefined-- 46.574
3.50 --undefined-- 46.746
3.51 --undefined-- 46.290
3.52 --undefined-- 45.114
3.53 --undefined-- 44.685
3.54 --undefined-- 44.712
3.55 --undefined-- 44.609
3.56 --undefined-- 44.230
3.57 --undefined-- 43.479
3.58 --undefined-- 43.008
3.59 --undefined-- 42.956
3.60 --undefined-- 42.218
3.61 --undefined-- 40.696
3.62 --undefined-- 40.163
3.63 --undefined-- 40.892
3.64 --undefined-- 41.271
3.65 --undefined-- 43.339
3.66 --undefined-- 46.260
3.67 --undefined-- 50.373
3.68 --undefined-- 60.005
3.69 209.684 66.831
3.70 203.308 70.509
3.71 207.378 72.259
3.72 216.642 72.993
3.73 225.295 73.094
3.74 232.603 72.983
3.75 238.164 73.082
3.76 242.602 73.342
3.77 246.293 73.615
3.78 248.905 73.672
3.79 249.812 73.303
3.80 248.283 72.370
3.81 241.294 70.507
3.82 234.604 67.329
3.83 247.345 62.925
3.84 --undefined-- 61.239
3.85 --undefined-- 66.263
3.86 264.588 71.565
3.87 269.414 74.387
3.88 266.312 75.086
3.89 254.862 74.699
3.90 237.066 74.215
3.91 219.489 74.013
3.92 212.524 73.775
3.93 209.343 73.264
3.94 208.274 72.530
3.95 209.606 71.877
3.96 212.146 71.543
3.97 219.286 71.198
3.98 233.011 70.588
3.99 250.507 70.190
4.00 252.971 70.372
4.01 253.387 70.639
4.02 253.695 70.913
4.03 251.556 71.679
4.04 254.265 72.668
4.05 259.172 73.327
4.06 262.767 73.688
4.07 266.004 73.928
4.08 268.923 73.633
4.09 274.859 72.456
4.10 281.217 70.901
4.11 283.493 69.961
4.12 286.711 69.708
4.13 288.424 69.920
4.14 289.007 70.374
4.15 288.102 70.839
4.16 285.916 71.119
4.17 282.472 70.996
4.18 275.852 70.557
4.19 271.427 70.360
4.20 266.370 70.635
4.21 262.815 71.164
4.22 258.764 71.585
4.23 253.624 71.814
4.24 248.034 72.024
4.25 242.511 72.246
4.26 236.590 72.306
4.27 230.150 72.164
4.28 222.199 72.412
4.29 209.542 73.485
4.30 203.829 74.364
4.31 197.243 74.521
4.32 190.356 74.395
4.33 185.309 74.246
4.34 180.811 73.928
4.35 176.798 73.465
4.36 173.565 72.856
4.37 172.130 71.807
4.38 170.105 70.173
4.39 168.230 68.413
4.40 169.594 67.411
4.41 173.045 67.178
4.42 176.911 67.491
4.43 180.357 68.336
4.44 185.612 69.393
4.45 189.785 70.277
4.46 194.904 70.915
4.47 198.837 71.448
4.48 201.616 71.954
4.49 204.789 72.379
4.50 207.235 72.582
4.51 207.890 72.548
4.52 208.582 72.463
4.53 208.551 72.410
4.54 208.041 72.329
4.55 207.724 72.285
4.56 207.019 72.371
4.57 206.457 72.339
4.58 206.507 71.692
4.59 206.149 70.176
4.60 203.717 67.684
4.61 193.781 64.220
4.62 196.189 60.002
4.63 200.769 55.123
4.64 --undefined-- 49.798
4.65 --undefined-- 47.565
4.66 --undefined-- 50.243
4.67 --undefined-- 56.885
4.68 283.959 64.555
4.69 265.104 69.487
4.70 261.684 71.698
4.71 261.447 72.087
4.72 259.536 71.474
4.73 254.206 70.429
4.74 252.822 69.835
4.75 257.649 69.852
4.76 261.739 70.008
4.77 261.517 70.284
4.78 259.162 70.695
4.79 256.213 71.254
4.80 253.950 71.950
4.81 245.643 72.390
4.82 233.539 72.493
4.83 221.916 72.341
4.84 211.420 71.380
4.85 201.616 69.251
4.86 191.661 66.191
4.87 184.639 62.152
4.88 201.386 57.079
4.89 --undefined-- 50.883
4.90 --undefined-- 46.404
4.91 --undefined-- 46.726
4.92 --undefined-- 52.691
4.93 --undefined-- 60.539
4.94 --undefined-- 67.216
4.95 196.559 71.400
4.96 195.633 73.050
4.97 192.276 72.967
4.98 188.903 72.150
4.99 186.118 71.450
5.00 184.042 70.931
5.01 181.435 69.782
5.02 171.697 68.461
5.03 173.946 68.820
5.04 174.742 69.805
5.05 172.761 70.126
5.06 169.818 70.004
5.07 167.344 70.370
5.08 165.065 71.179
5.09 163.332 71.381
5.10 159.318 70.786
5.11 158.356 69.734
5.12 156.601 68.782
5.13 156.387 68.354
5.14 161.013 68.380
5.15 163.656 68.593
5.16 166.117 68.755
5.17 169.039 68.794
5.18 172.286 68.613
5.19 174.887 68.344
5.20 177.214 68.318
5.21 179.409 68.547
5.22 180.794 68.606
5.23 181.569 67.920
5.24 181.742 66.028
5.25 184.156 62.665
5.26 183.614 57.667
5.27 --undefined-- 55.757
5.28 --undefined-- 63.799
5.29 --undefined-- 69.522
5.30 192.892 71.886
5.31 185.491 71.872
5.32 173.445 71.219
5.33 167.141 71.122
5.34 164.994 71.215
5.35 163.819 71.370
5.36 163.910 71.621
5.37 163.720 71.727
5.38 163.156 71.509
5.39 163.855 71.112
5.40 164.773 --undefined--
5.41 165.832 --undefined--
5.42 --undefined-- --undefined--
5.43 --undefined-- --undefined--
