Time Pitch Intensity
0.01 --undefined-- --undefined--
0.02 197.986 --undefined--
0.03 199.741 --undefined--
0.04 200.845 --undefined--
0.05 200.233 64.758
0.06 194.389 61.128
0.07 196.687 57.409
0.08 --undefined-- 54.186
0.09 --undefined-- 54.987
0.10 --undefined-- 55.527
0.11 --undefined-- 54.377
0.12 --undefined-- 54.603
0.13 220.771 55.065
0.14 219.510 58.095
0.15 211.931 62.653
0.16 188.699 65.931
0.17 180.820 68.067
0.18 170.487 69.450
0.19 165.125 70.075
0.20 161.816 70.109
0.21 162.050 70.504
0.22 163.969 71.340
0.23 166.389 72.404
0.24 169.595 73.520
0.25 175.591 74.124
0.26 182.305 74.086
0.27 194.129 73.397
0.28 205.867 72.634
0.29 214.165 72.723
0.30 224.774 74.084
0.31 227.964 75.852
0.32 231.129 77.070
0.33 233.652 77.765
0.34 234.794 78.087
0.35 233.837 77.428
0.36 230.921 74.842
0.37 --undefined-- 70.173
0.38 --undefined-- 65.276
0.39 188.696 62.041
0.40 187.871 58.438
0.41 233.961 55.478
0.42 231.426 55.038
0.43 231.793 55.369
0.44 237.436 56.928
0.45 --undefined-- 57.739
0.46 --undefined-- 56.437
0.47 --undefined-- 53.831
0.48 --undefined-- 54.627
0.49 --undefined-- 56.286
0.50 --undefined-- 56.485
0.51 --undefined-- 56.270
0.52 --undefined-- 55.112
0.53 276.759 53.299
0.54 275.156 53.539
0.55 275.321 54.109
0.56 277.637 54.117
0.57 281.377 55.838
0.58 285.123 56.898
0.59 284.976 55.939
0.60 286.743 55.306
0.61 288.086 54.737
0.62 270.639 53.587
0.63 274.507 52.782
0.64 276.742 54.853
0.65 278.691 59.000
0.66 280.372 61.161
0.67 274.692 60.454
0.68 277.108 57.370
0.69 277.190 54.034
0.70 --undefined-- 54.350
0.71 --undefined-- 57.285
0.72 --undefined-- 59.098
0.73 --undefined-- 58.465
0.74 --undefined-- 57.183
0.75 --undefined-- 57.731
0.76 --undefined-- 56.738
0.77 --undefined-- 53.655
0.78 --undefined-- 52.235
0.79 --undefined-- 56.048
0.80 --undefined-- 64.556
0.81 --undefined-- 70.707
0.82 209.105 74.150
0.83 209.321 75.703
0.84 210.176 76.120
0.85 211.757 75.867
0.86 213.281 75.277
0.87 214.405 74.497
0.88 215.174 73.247
0.89 216.667 71.366
0.90 218.398 69.275
0.91 220.897 67.438
0.92 223.939 65.612
0.93 224.301 63.077
0.94 218.443 59.263
0.95 216.592 55.445
0.96 --undefined-- 54.443
0.97 --undefined-- 53.750
0.98 --undefined-- 51.818
0.99 --undefined-- 52.386
1.00 --undefined-- 53.571
1.01 --undefined-- 52.770
1.02 --undefined-- 52.534
1.03 --undefined-- 53.263
1.04 --undefined-- 52.052
1.05 --undefined-- 49.179
1.06 --undefined-- 49.320
1.07 --undefined-- 50.202
1.08 --undefined-- 49.528
1.09 --undefined-- 51.194
1.10 --undefined-- 55.001
1.11 --undefined-- 60.293
1.12 268.483 65.121
1.13 261.827 68.421
1.14 258.213 70.330
1.15 255.574 71.125
1.16 254.493 71.188
1.17 254.938 70.965
1.18 256.166 71.078
1.19 257.520 71.510
1.20 259.548 71.782
1.21 261.714 71.840
1.22 263.419 71.670
1.23 264.859 71.025
1.24 266.677 69.647
1.25 269.268 68.010
1.26 271.253 67.118
1.27 272.031 67.122
1.28 272.301 67.425
1.29 272.624 67.568
1.30 273.201 67.484
1.31 269.857 67.255
1.32 265.876 66.653
1.33 259.476 65.577
1.34 252.386 64.713
1.35 247.924 64.893
1.36 246.862 65.477
1.37 248.727 65.701
1.38 251.762 65.727
1.39 255.569 66.097
1.40 259.150 66.535
1.41 263.014 66.626
1.42 267.062 66.676
1.43 270.481 66.784
1.44 273.381 66.853
1.45 276.161 67.179
1.46 278.205 67.731
1.47 279.388 67.961
1.48 280.515 67.745
1.49 281.512 67.364
1.50 281.592 66.715
1.51 280.017 65.523
1.52 275.205 63.472
1.53 265.784 60.040
1.54 254.765 55.287
1.55 --undefined-- 50.789
1.56 --undefined-- 48.061
1.57 --undefined-- 49.965
1.58 --undefined-- 52.482
1.59 --undefined-- 52.544
1.60 --undefined-- 51.246
1.61 --undefined-- 50.579
1.62 --undefined-- 49.128
1.63 --undefined-- 47.322
1.64 --undefined-- 51.450
1.65 --undefined-- 58.912
1.66 --undefined-- 64.436
1.67 202.036 67.842
1.68 196.952 69.840
1.69 192.785 71.220
1.70 191.943 72.311
1.71 192.468 73.121
1.72 194.983 73.573
1.73 199.021 73.224
1.74 202.578 71.702
1.75 207.289 69.390
1.76 212.204 68.349
1.77 221.780 69.126
1.78 233.031 70.005
1.79 242.681 70.753
1.80 252.045 71.540
1.81 261.840 72.360
1.82 269.726 72.646
1.83 279.457 72.286
1.84 290.046 71.559
1.85 153.899 70.566
1.86 157.857 69.605
1.87 159.883 68.180
1.88 159.417 65.797
1.89 154.780 62.863
1.90 --undefined-- 59.869
1.91 --undefined-- 56.630
1.92 --undefined-- 54.797
1.93 --undefined-- 53.813
1.94 --undefined-- 51.136
1.95 --undefined-- 50.343
1.96 --undefined-- 52.843
1.97 --undefined-- 55.526
1.98 --undefined-- 57.198
1.99 --undefined-- 56.673
2.00 --undefined-- 53.923
2.01 --undefined-- 51.071
2.02 --undefined-- 50.342
2.03 --undefined-- 49.067
2.04 --undefined-- 48.112
2.05 --undefined-- 48.255
2.06 --undefined-- 47.957
2.07 --undefined-- 49.726
2.08 --undefined-- 53.948
2.09 --undefined-- 55.572
2.10 --undefined-- 55.944
2.11 286.279 60.513
2.12 251.685 64.117
2.13 240.802 65.891
2.14 243.788 67.410
2.15 252.640 69.107
2.16 264.319 70.426
2.17 268.720 71.174
2.18 277.899 71.655
2.19 284.696 72.123
2.20 289.816 72.499
2.21 294.213 72.621
2.22 295.484 72.434
2.23 290.808 71.557
2.24 283.449 69.091
2.25 267.898 64.268
2.26 287.279 58.135
2.27 293.287 56.079
2.28 298.623 56.373
2.29 --undefined-- 55.918
2.30 --undefined-- 54.310
2.31 --undefined-- 55.928
2.32 --undefined-- 58.517
2.33 --undefined-- 60.003
2.34 231.461 62.669
2.35 217.532 65.763
2.36 211.977 68.185
2.37 211.438 69.930
2.38 212.426 71.107
2.39 216.290 71.870
2.40 223.172 72.259
2.41 232.070 72.347
2.42 242.499 72.182
2.43 255.836 71.361
2.44 268.963 69.890
2.45 289.475 68.741
2.46 158.477 68.630
2.47 163.596 68.561
2.48 166.852 68.091
2.49 170.983 67.758
2.50 171.539 67.119
2.51 169.582 65.729
2.52 163.392 64.705
2.53 162.462 64.396
2.54 157.161 63.413
2.55 298.514 62.130
2.56 294.072 61.984
2.57 285.946 62.291
2.58 286.078 63.105
2.59 288.815 64.584
2.60 295.703 65.869
2.61 292.877 67.155
2.62 275.152 68.483
2.63 253.086 69.204
2.64 246.110 69.473
2.65 243.010 69.792
2.66 243.227 69.926
2.67 245.720 69.379
2.68 249.163 68.351
2.69 253.626 68.043
2.70 258.044 68.430
2.71 263.236 68.203
2.72 275.039 67.193
2.73 281.619 66.525
2.74 287.249 66.886
2.75 292.149 67.452
2.76 298.376 67.746
2.77 152.441 68.020
2.78 154.930 68.481
2.79 157.529 69.048
2.80 159.527 69.492
2.81 161.083 69.625
2.82 161.152 69.528
2.83 159.344 69.289
2.84 155.541 68.999
2.85 151.000 68.827
2.86 293.427 68.515
2.87 281.000 67.636
2.88 268.927 66.786
2.89 257.761 66.570
2.90 250.549 67.397
2.91 238.766 69.461
2.92 231.281 71.379
2.93 220.518 71.998
2.94 210.472 71.322
2.95 206.033 70.156
2.96 202.524 69.017
2.97 200.736 68.411
2.98 199.753 68.387
2.99 199.294 68.478
3.00 198.348 68.429
3.01 197.117 68.187
3.02 196.007 68.130
3.03 195.293 68.240
3.04 195.051 68.079
3.05 193.584 67.603
3.06 190.777 67.087
3.07 194.364 66.547
3.08 195.388 66.019
3.09 195.546 65.809
3.10 194.531 65.889
3.11 192.719 66.114
3.12 189.967 66.445
3.13 188.284 66.973
3.14 184.281 67.984
3.15 178.642 68.859
3.16 176.339 68.966
3.17 175.013 68.622
3.18 172.397 68.598
3.19 171.292 69.226
3.20 172.755 69.920
3.21 175.943 70.239
3.22 181.166 70.371
3.23 190.240 70.402
3.24 203.924 69.730
3.25 217.093 68.198
3.26 232.627 66.901
3.27 245.829 66.006
3.28 257.696 65.756
3.29 269.054 66.972
3.30 278.642 68.311
3.31 281.615 68.940
3.32 281.637 68.350
3.33 278.198 65.687
3.34 276.930 60.847
3.35 --undefined-- 57.828
3.36 --undefined-- 57.386
3.37 --undefined-- 54.753
3.38 --undefined-- 53.202
3.39 --undefined-- 59.546
3.40 --undefined-- 65.135
3.41 --undefined-- 67.637
3.42 --undefined-- 67.813
3.43 --undefined-- 67.199
3.44 201.605 67.140
3.45 198.193 67.564
3.46 201.071 68.040
3.47 204.882 67.967
3.48 207.888 67.172
3.49 209.577 66.139
3.50 209.507 64.831
3.51 208.995 62.907
3.52 207.876 60.435
3.53 208.049 58.322
3.54 --undefined-- 57.984
3.55 --undefined-- 57.270
3.56 --undefined-- 54.000
3.57 --undefined-- 49.384
3.58 --undefined-- 48.673
3.59 --undefined-- 52.368
3.60 --undefined-- 55.902
3.61 --undefined-- 57.024
3.62 --undefined-- 55.890
3.63 --undefined-- 53.370
3.64 --undefined-- 51.652
3.65 --undefined-- 50.836
3.66 --undefined-- 51.505
3.67 --undefined-- 53.396
3.68 --undefined-- 55.118
3.69 --undefined-- 59.021
3.70 --undefined-- 63.083
3.71 189.666 65.971
3.72 188.949 67.756
3.73 179.861 67.938
3.74 172.130 66.735
3.75 170.719 65.627
3.76 168.969 65.424
3.77 168.492 65.409
3.78 168.853 65.583
3.79 169.897 66.004
3.80 172.835 66.174
3.81 175.693 66.322
3.82 182.728 67.037
3.83 184.438 67.932
3.84 183.772 68.191
3.85 191.650 67.795
3.86 197.943 67.000
3.87 204.813 65.974
3.88 211.418 65.576
3.89 215.943 66.038
3.90 218.774 66.512
3.91 222.211 66.391
3.92 223.584 65.133
3.93 218.980 62.013
3.94 214.964 56.716
3.95 --undefined-- 51.022
3.96 --undefined-- 52.665
3.97 --undefined-- 55.772
3.98 --undefined-- 56.176
3.99 --undefined-- 56.568
4.00 --undefined-- 60.136
4.01 282.841 63.176
4.02 267.032 64.404
4.03 267.725 64.543
4.04 269.300 64.561
4.05 269.876 64.689
4.06 270.608 65.166
4.07 271.949 65.610
4.08 273.361 65.636
4.09 275.295 65.855
4.10 276.721 66.422
4.11 277.318 66.949
4.12 277.837 67.261
4.13 278.685 67.309
4.14 278.747 67.211
4.15 278.986 67.091
4.16 279.582 66.921
4.17 280.141 66.878
4.18 280.498 66.997
4.19 280.421 66.952
4.20 279.900 66.309
4.21 276.768 64.482
4.22 264.012 61.074
4.23 250.150 57.793
4.24 --undefined-- 58.494
4.25 --undefined-- 58.430
4.26 --undefined-- 55.361
4.27 --undefined-- 50.909
4.28 --undefined-- 48.849
4.29 --undefined-- 51.922
4.30 --undefined-- 54.405
4.31 --undefined-- 54.267
4.32 --undefined-- 53.979
4.33 --undefined-- 54.503
4.34 --undefined-- 53.722
4.35 --undefined-- 53.979
4.36 --undefined-- 54.647
4.37 --undefined-- 54.991
4.38 --undefined-- 56.766
4.39 --undefined-- 58.831
4.40 --undefined-- 60.134
4.41 --undefined-- 60.633
4.42 --undefined-- 60.277
4.43 --undefined-- 59.245
4.44 --undefined-- 58.280
4.45 206.871 57.865
4.46 210.644 60.068
4.47 213.100 62.444
4.48 200.761 63.667
4.49 192.712 64.484
4.50 187.766 65.250
4.51 182.070 65.689
4.52 174.661 65.526
4.53 165.946 64.931
4.54 163.604 64.745
4.55 162.394 65.004
4.56 160.535 65.035
4.57 158.991 64.638
4.58 158.690 64.063
4.59 158.976 63.546
4.60 159.642 62.888
4.61 160.337 62.170
4.62 159.867 61.616
4.63 158.765 61.913
4.64 160.257 62.757
4.65 162.135 62.689
4.66 164.066 61.953
4.67 167.219 61.811
4.68 168.716 62.902
4.69 170.845 64.590
4.70 174.486 65.648
4.71 184.480 66.404
4.72 190.934 67.818
4.73 193.761 68.985
4.74 199.086 69.558
4.75 202.529 70.286
4.76 204.590 71.556
4.77 206.461 72.909
4.78 205.560 74.096
4.79 202.267 74.723
4.80 197.826 74.491
4.81 190.419 73.953
4.82 182.135 73.547
4.83 174.607 72.655
4.84 --undefined-- 70.594
4.85 --undefined-- 66.957
4.86 --undefined-- 62.681
4.87 --undefined-- 59.911
4.88 --undefined-- 58.043
4.89 --undefined-- 55.074
4.90 --undefined-- 53.152
4.91 --undefined-- 54.729
4.92 --undefined-- 56.077
4.93 --undefined-- 55.278
4.94 --undefined-- 53.622
4.95 --undefined-- --undefined--
4.96 --undefined-- --undefined--
4.97 --undefined-- --undefined--
4.98 --undefined-- --undefined--
