Time Pitch Intensity
0.01 --undefined-- --undefined--
0.02 255.618 --undefined--
0.03 256.200 --undefined--
0.04 256.079 --undefined--
0.05 255.884 70.960
0.06 256.435 70.424
0.07 256.873 69.666
0.08 256.610 68.934
0.09 256.192 68.726
0.10 255.502 68.460
0.11 254.174 67.783
0.12 251.388 66.841
0.13 249.307 65.523
0.14 250.404 63.468
0.15 250.534 59.906
0.16 --undefined-- 53.959
0.17 --undefined-- 47.671
0.18 --undefined-- 47.592
0.19 --undefined-- 48.325
0.20 --undefined-- 48.328
0.21 --undefined-- 49.456
0.22 --undefined-- 49.836
0.23 --undefined-- 49.507
0.24 --undefined-- 50.752
0.25 --undefined-- 53.350
0.26 --undefined-- 54.598
0.27 --undefined-- 53.480
0.28 --undefined-- 51.228
0.29 --undefined-- 50.554
0.30 --undefined-- 50.861
0.31 --undefined-- 50.631
0.32 --undefined-- 51.117
0.33 --undefined-- 51.594
0.34 --undefined-- 51.527
0.35 --undefined-- 52.760
0.36 --undefined-- 54.690
0.37 --undefined-- 55.439
0.38 --undefined-- 54.293
0.39 --undefined-- 52.323
0.40 --undefined-- 50.982
0.41 --undefined-- 49.316
0.42 --undefined-- 47.144
0.43 --undefined-- 48.831
0.44 --undefined-- 51.648
0.45 --undefined-- 52.059
0.46 --undefined-- 50.790
0.47 --undefined-- 50.742
0.48 --undefined-- 52.665
0.49 --undefined-- 54.156
0.50 --undefined-- 58.852
0.51 200.380 64.978
0.52 197.679 69.508
0.53 194.144 73.111
0.54 191.600 76.167
0.55 190.312 78.055
0.56 189.598 78.340
0.57 191.158 77.089
0.58 196.247 74.634
0.59 209.876 72.230
0.60 220.282 71.266
0.61 229.742 70.949
0.62 235.043 70.487
0.63 238.421 69.292
0.64 237.466 66.865
0.65 228.558 62.819
0.66 244.426 58.255
0.67 --undefined-- 57.654
0.68 --undefined-- 58.138
0.69 --undefined-- 57.104
0.70 --undefined-- 55.226
0.71 --undefined-- 55.044
0.72 --undefined-- 59.314
0.73 232.831 64.153
0.74 220.215 66.868
0.75 206.248 68.116
0.76 199.310 68.919
0.77 196.494 69.742
0.78 196.331 70.293
0.79 197.135 70.245
0.80 198.759 69.955
0.81 201.204 69.915
0.82 204.791 70.118
0.83 209.346 69.785
0.84 212.800 67.940
0.85 211.272 63.977
0.86 192.404 58.200
0.87 --undefined-- 55.316
0.88 --undefined-- 56.589
0.89 --undefined-- 57.163
0.90 --undefined-- 58.509
0.91 242.288 62.894
0.92 219.626 66.349
0.93 204.780 68.033
0.94 193.783 69.259
0.95 186.126 70.607
0.96 181.570 71.516
0.97 179.465 71.766
0.98 178.732 71.268
0.99 178.245 69.329
1.00 177.462 65.260
1.01 178.886 59.410
1.02 --undefined-- 53.771
1.03 --undefined-- 53.781
1.04 --undefined-- 60.806
1.05 240.158 66.925
1.06 237.355 70.244
1.07 236.825 71.440
1.08 239.079 71.322
1.09 240.839 69.773
1.10 240.434 66.071
1.11 238.309 59.697
1.12 --undefined-- 52.108
1.13 --undefined-- 48.644
1.14 --undefined-- 46.435
1.15 --undefined-- 44.620
1.16 --undefined-- 48.924
1.17 --undefined-- 57.861
1.18 244.813 64.179
1.19 226.080 67.685
1.20 209.230 69.301
1.21 193.591 69.809
1.22 185.171 69.641
1.23 181.668 68.811
1.24 181.883 67.411
1.25 182.467 66.091
1.26 182.619 65.294
1.27 182.253 64.800
1.28 181.270 64.388
1.29 181.015 64.107
1.30 181.227 63.888
1.31 180.220 63.527
1.32 177.393 62.963
1.33 174.112 62.475
1.34 174.839 62.412
1.35 166.777 62.884
1.36 165.899 63.913
1.37 164.927 65.181
1.38 162.645 65.872
1.39 158.886 65.886
1.40 155.989 65.787
1.41 155.946 65.762
1.42 156.593 65.615
1.43 157.726 65.434
1.44 159.766 64.993
1.45 161.945 64.021
1.46 164.530 63.029
1.47 166.641 62.750
1.48 167.657 62.851
1.49 170.619 63.022
1.50 174.944 63.356
1.51 177.366 63.754
1.52 178.486 64.081
1.53 180.335 64.332
1.54 182.409 64.759
1.55 183.945 65.836
1.56 184.490 67.427
1.57 185.359 69.036
1.58 185.925 70.502
1.59 186.596 71.702
1.60 187.243 72.558
1.61 187.814 73.187
1.62 188.143 73.321
1.63 187.280 72.706
1.64 188.005 71.711
1.65 189.091 70.540
1.66 191.192 69.281
1.67 193.661 68.237
1.68 192.907 67.352
1.69 192.341 66.877
1.70 196.244 66.791
1.71 196.165 66.382
1.72 194.441 65.242
1.73 188.066 63.194
1.74 181.050 60.451
1.75 --undefined-- 56.877
1.76 --undefined-- 52.405
1.77 --undefined-- 51.132
1.78 --undefined-- 58.131
1.79 289.611 64.016
1.80 264.527 67.395
1.81 263.064 68.728
1.82 262.844 69.023
1.83 264.733 69.171
1.84 267.677 69.333
1.85 269.844 69.303
1.86 272.094 69.097
1.87 274.342 69.001
1.88 276.663 69.183
1.89 277.145 69.661
1.90 279.290 70.349
1.91 281.432 71.001
1.92 281.989 71.400
1.93 281.675 71.505
1.94 279.399 71.292
1.95 275.303 70.763
1.96 269.725 69.949
1.97 262.314 68.812
1.98 251.835 67.419
1.99 236.556 66.119
2.00 220.663 65.419
2.01 205.629 65.356
2.02 193.311 65.404
2.03 182.344 65.358
2.04 172.944 64.985
2.05 166.959 64.193
2.06 166.108 63.708
2.07 166.199 63.504
2.08 174.813 63.243
2.09 182.432 63.527
2.10 186.532 64.354
2.11 191.199 65.095
2.12 197.510 65.342
2.13 205.899 65.254
2.14 216.306 65.592
2.15 222.711 66.497
2.16 228.333 67.332
2.17 234.353 67.751
2.18 239.156 67.859
2.19 242.649 67.789
2.20 243.090 67.353
2.21 239.529 66.622
2.22 239.903 66.498
2.23 240.607 67.285
2.24 233.035 68.332
2.25 226.130 69.094
2.26 214.893 69.141
2.27 202.777 69.281
2.28 195.650 69.655
2.29 192.639 68.707
2.30 190.923 65.531
2.31 --undefined-- 61.882
2.32 --undefined-- 61.177
2.33 --undefined-- 60.232
2.34 --undefined-- 57.233
2.35 --undefined-- 54.462
2.36 --undefined-- 56.138
2.37 --undefined-- 56.938
2.38 --undefined-- 54.704
2.39 --undefined-- 50.675
2.40 --undefined-- 48.934
2.41 --undefined-- 52.063
2.42 --undefined-- 57.115
2.43 --undefined-- 60.561
2.44 --undefined-- 62.117
2.45 --undefined-- 62.515
2.46 --undefined-- 61.958
2.47 --undefined-- 59.737
2.48 --undefined-- 56.447
2.49 280.672 59.468
2.50 280.861 65.406
2.51 284.019 68.996
2.52 290.044 70.620
2.53 294.421 71.090
2.54 294.615 71.028
2.55 295.145 70.996
2.56 295.629 71.193
2.57 296.165 71.455
2.58 295.788 71.623
2.59 294.069 71.625
2.60 292.882 71.449
2.61 291.963 71.131
2.62 288.484 70.688
2.63 284.111 69.579
2.64 273.199 67.174
2.65 255.718 63.445
2.66 --undefined-- 59.327
2.67 --undefined-- 57.531
2.68 --undefined-- 58.187
2.69 --undefined-- 58.169
2.70 --undefined-- 56.999
2.71 --undefined-- 56.508
2.72 --undefined-- 57.056
2.73 --undefined-- 56.748
2.74 --undefined-- 54.647
2.75 --undefined-- 51.596
2.76 --undefined-- 49.632
2.77 --undefined-- 50.247
2.78 --undefined-- 52.215
2.79 --undefined-- 53.405
2.80 --undefined-- 52.996
2.81 --undefined-- 52.524
2.82 --undefined-- 54.824
2.83 --undefined-- 57.486
2.84 --undefined-- 61.921
2.85 163.563 66.955
2.86 166.309 69.847
2.87 169.462 70.837
2.88 172.003 70.837
2.89 173.998 70.558
2.90 175.521 70.391
2.91 176.470 70.434
2.92 177.123 70.351
2.93 177.365 70.064
2.94 176.412 69.809
2.95 175.023 69.495
2.96 173.695 68.905
2.97 172.989 68.214
2.98 173.310 67.707
2.99 175.257 67.299
3.00 181.382 67.183
3.01 183.108 67.356
3.02 179.494 66.903
3.03 177.896 65.926
3.04 175.249 65.524
3.05 168.232 66.435
3.06 162.780 68.293
3.07 157.801 69.860
3.08 151.012 70.378
3.09 283.058 69.632
3.10 262.262 67.725
3.11 239.131 65.425
3.12 212.659 63.998
3.13 186.244 63.077
3.14 163.290 61.865
3.15 154.909 60.981
3.16 150.836 61.166
3.17 149.055 61.374
3.18 144.323 60.563
3.19 145.081 59.012
3.20 146.240 57.715
3.21 145.970 57.108
3.22 146.466 56.770
3.23 144.316 56.808
3.24 --undefined-- 57.078
3.25 --undefined-- 56.760
3.26 --undefined-- 54.884
3.27 --undefined-- 53.205
3.28 --undefined-- 56.958
3.29 188.033 60.732
3.30 193.859 62.833
3.31 195.755 63.907
3.32 199.822 64.377
3.33 208.506 64.726
3.34 212.366 65.459
3.35 218.359 66.179
3.36 225.987 66.275
3.37 235.729 65.927
3.38 237.836 66.051
3.39 242.415 67.042
3.40 245.418 68.206
3.41 246.059 68.609
3.42 245.601 68.048
3.43 247.945 66.987
3.44 251.510 65.399
3.45 251.301 62.364
3.46 --undefined-- 57.949
3.47 --undefined-- 57.344
3.48 --undefined-- 58.347
3.49 --undefined-- 57.277
3.50 --undefined-- 55.044
3.51 --undefined-- 54.006
3.52 --undefined-- 54.663
3.53 --undefined-- 55.008
3.54 --undefined-- 54.556
3.55 --undefined-- 55.939
3.56 --undefined-- 58.225
3.57 --undefined-- 58.259
3.58 --undefined-- 56.558
3.59 --undefined-- 56.453
3.60 --undefined-- 57.935
3.61 --undefined-- 59.216
3.62 --undefined-- 62.242
3.63 182.534 65.446
3.64 177.074 66.999
3.65 172.111 67.086
3.66 169.675 66.324
3.67 167.955 65.807
3.68 167.105 65.718
3.69 166.101 65.298
3.70 166.118 64.519
3.71 166.728 63.717
3.72 167.177 63.104
3.73 168.664 62.749
3.74 170.070 62.399
3.75 171.298 61.709
3.76 173.863 60.621
3.77 169.819 59.811
3.78 167.878 60.229
3.79 168.000 61.504
3.80 168.085 63.019
3.81 168.401 64.269
3.82 169.586 64.904
3.83 171.401 65.176
3.84 173.416 65.643
3.85 175.470 66.302
3.86 175.714 66.753
3.87 175.281 66.739
3.88 174.329 66.203
3.89 174.001 65.342
3.90 174.312 64.442
3.91 173.577 63.492
3.92 172.684 62.103
3.93 171.163 60.487
3.94 --undefined-- 59.482
3.95 --undefined-- 58.056
3.96 285.901 57.036
3.97 --undefined-- 59.910
3.98 --undefined-- 62.845
3.99 --undefined-- 63.508
4.00 --undefined-- 61.924
4.01 --undefined-- 59.527
4.02 230.630 60.840
4.03 228.253 63.899
4.04 226.347 65.728
4.05 221.569 66.808
4.06 217.980 67.469
4.07 216.471 67.797
4.08 215.372 67.942
4.09 216.323 68.165
4.10 217.712 68.604
4.11 219.744 68.750
4.12 220.924 67.876
4.13 220.691 66.044
4.14 219.690 63.899
4.15 217.751 61.869
4.16 219.596 59.302
4.17 --undefined-- 55.983
4.18 --undefined-- 54.870
4.19 --undefined-- 54.470
4.20 --undefined-- 52.949
4.21 --undefined-- 56.497
4.22 223.994 61.091
4.23 204.539 63.139
4.24 198.209 63.419
4.25 189.949 64.061
4.26 179.905 65.856
4.27 175.117 67.254
4.28 172.651 67.414
4.29 171.588 66.565
4.30 171.746 65.520
4.31 171.410 64.615
4.32 170.150 63.899
4.33 169.299 63.831
4.34 168.752 64.088
4.35 168.571 63.765
4.36 169.188 62.833
4.37 170.093 62.051
4.38 171.182 61.731
4.39 171.775 61.420
4.40 172.640 61.031
4.41 171.732 60.125
4.42 164.213 58.153
4.43 156.000 56.462
4.44 --undefined-- 59.755
4.45 185.890 64.109
4.46 176.446 66.522
4.47 165.574 67.408
4.48 161.604 67.220
4.49 159.887 66.844
4.50 160.605 67.754
4.51 165.478 69.780
4.52 170.341 71.833
4.53 173.308 73.466
4.54 175.350 74.956
4.55 177.605 76.099
4.56 178.743 76.463
4.57 179.584 76.046
4.58 179.176 75.132
4.59 177.285 74.261
4.60 175.419 73.714
4.61 177.393 72.769
4.62 --undefined-- 71.242
4.63 --undefined-- 69.349
4.64 --undefined-- 66.449
4.65 --undefined-- 62.989
4.66 --undefined-- 58.866
4.67 --undefined-- 55.449
4.68 --undefined-- 55.830
4.69 --undefined-- 55.716
4.70 --undefined-- 52.604
4.71 --undefined-- 47.542
4.72 --undefined-- 45.490
4.73 --undefined-- 47.930
4.74 --undefined-- 51.316
4.75 --undefined-- 53.400
4.76 --undefined-- 53.972
4.77 --undefined-- 54.904
4.78 --undefined-- 57.535
4.79 --undefined-- 59.353
4.80 --undefined-- 58.961
4.81 --undefined-- 55.850
4.82 --undefined-- 51.227
4.83 --undefined-- 50.884
4.84 --undefined-- 52.000
4.85 --undefined-- 52.565
4.86 --undefined-- 55.709
4.87 --undefined-- 58.282
4.88 --undefined-- 59.616
4.89 --undefined-- 61.213
4.90 --undefined-- 62.874
4.91 --undefined-- 63.069
4.92 --undefined-- 61.117
4.93 --undefined-- 57.039
4.94 --undefined-- 52.350
4.95 --undefined-- 50.508
4.96 --undefined-- 52.470
4.97 --undefined-- 56.885
4.98 --undefined-- 59.357
4.99 --undefined-- 59.491
5.00 --undefined-- 57.495
5.01 --undefined-- 53.690
5.02 --undefined-- 50.377
5.03 --undefined-- 52.324
5.04 --undefined-- 57.389
5.05 --undefined-- 60.323
5.06 --undefined-- --undefined--
5.07 --undefined-- --undefined--
5.08 --undefined-- --undefined--
5.09 --undefined-- --undefined--
