Time Pitch Intensity
0.01 --undefined-- --undefined--
0.02 134.687 --undefined--
0.03 127.165 --undefined--
0.04 116.991 --undefined--
0.05 109.482 74.914
0.06 106.082 73.963
0.07 103.166 73.216
0.08 102.303 72.897
0.09 103.370 73.300
0.10 105.850 74.122
0.11 107.938 74.723
0.12 109.712 74.678
0.13 110.989 73.707
0.14 110.975 71.569
0.15 111.121 68.327
0.16 113.145 64.136
0.17 110.054 58.958
0.18 --undefined-- 54.143
0.19 --undefined-- 54.761
0.20 --undefined-- 59.174
0.21 --undefined-- 63.171
0.22 --undefined-- 70.123
0.23 205.939 76.341
0.24 184.966 79.730
0.25 170.452 80.912
0.26 165.281 80.970
0.27 166.598 80.734
0.28 169.862 80.583
0.29 173.066 80.294
0.30 176.534 79.458
0.31 178.079 78.459
0.32 175.563 78.064
0.33 174.000 78.228
0.34 170.849 78.641
0.35 166.356 78.925
0.36 158.596 78.722
0.37 144.582 77.998
0.38 133.663 76.934
0.39 124.860 76.016
0.40 118.975 75.463
0.41 115.159 74.900
0.42 110.859 74.531
0.43 112.225 74.575
0.44 112.324 74.587
0.45 113.080 74.524
0.46 114.809 74.366
0.47 117.189 74.036
0.48 120.925 73.338
0.49 125.674 71.849
0.50 121.532 69.586
0.51 117.209 66.677
0.52 105.633 63.695
0.53 105.457 62.300
0.54 108.926 64.050
0.55 --undefined-- 70.869
0.56 147.217 76.200
0.57 139.980 78.876
0.58 127.321 79.994
0.59 123.198 80.595
0.60 122.734 80.790
0.61 123.843 80.443
0.62 124.341 79.914
0.63 125.139 79.538
0.64 125.740 79.057
0.65 124.963 77.791
0.66 118.601 75.087
0.67 108.525 70.508
0.68 90.673 64.085
0.69 --undefined-- 56.572
0.70 --undefined-- 51.662
0.71 --undefined-- 49.242
0.72 --undefined-- 47.377
0.73 --undefined-- 47.883
0.74 --undefined-- 48.437
0.75 --undefined-- 48.414
0.76 --undefined-- 48.447
0.77 --undefined-- 48.616
0.78 --undefined-- 49.000
0.79 --undefined-- 48.928
0.80 --undefined-- 47.869
0.81 --undefined-- 47.027
0.82 --undefined-- 47.215
0.83 --undefined-- 46.842
0.84 --undefined-- 45.265
0.85 --undefined-- 43.591
0.86 --undefined-- 43.722
0.87 --undefined-- 45.104
0.88 --undefined-- 45.433
0.89 --undefined-- 47.315
0.90 --undefined-- 53.033
0.91 --undefined-- 57.628
0.92 --undefined-- 60.426
0.93 --undefined-- 61.893
0.94 --undefined-- 66.222
0.95 --undefined-- 72.035
0.96 131.356 75.294
0.97 110.303 76.300
0.98 106.818 76.136
0.99 106.077 75.607
1.00 107.915 75.169
1.01 110.040 75.099
1.02 111.593 75.333
1.03 114.232 75.663
1.04 112.850 75.965
1.05 111.621 76.172
1.06 107.952 76.102
1.07 108.000 75.732
1.08 108.144 75.226
1.09 107.488 74.884
1.10 108.241 74.759
1.11 111.590 74.670
1.12 113.375 74.515
1.13 114.767 74.254
1.14 116.249 73.993
1.15 119.439 73.925
1.16 121.235 74.086
1.17 122.832 74.546
1.18 123.524 75.140
1.19 123.911 75.323
1.20 123.408 74.484
1.21 117.788 72.164
1.22 109.011 68.557
1.23 106.381 64.338
1.24 --undefined-- 59.214
1.25 --undefined-- 55.528
1.26 --undefined-- 58.210
1.27 --undefined-- 65.156
1.28 --undefined-- 70.449
1.29 119.539 73.248
1.30 117.683 74.684
1.31 115.137 75.587
1.32 113.325 76.140
1.33 112.688 76.326
1.34 111.571 76.182
1.35 110.938 75.961
1.36 110.669 75.840
1.37 111.037 75.749
1.38 111.396 75.559
1.39 111.103 75.044
1.40 107.930 73.957
1.41 104.517 72.145
1.42 105.240 69.498
1.43 90.165 65.815
1.44 91.136 61.126
1.45 --undefined-- 56.626
1.46 --undefined-- 55.421
1.47 --undefined-- 56.658
1.48 --undefined-- 62.061
1.49 --undefined-- 67.490
1.50 96.460 70.898
1.51 96.076 73.079
1.52 96.227 74.444
1.53 95.606 74.847
1.54 96.722 74.566
1.55 102.792 74.370
1.56 104.152 74.503
1.57 105.766 74.646
1.58 106.057 74.356
1.59 104.942 73.340
1.60 103.246 72.308
1.61 107.985 72.361
1.62 110.643 72.930
1.63 111.981 73.641
1.64 113.306 74.694
1.65 111.597 75.890
1.66 109.785 76.586
1.67 109.702 76.620
1.68 110.663 76.206
1.69 111.345 75.529
1.70 111.220 74.829
1.71 110.845 74.353
1.72 113.304 74.084
1.73 113.090 73.548
1.74 110.213 72.244
1.75 105.899 70.172
1.76 105.537 67.538
1.77 110.850 64.169
1.78 114.220 60.695
1.79 --undefined-- 61.319
1.80 --undefined-- 67.760
1.81 --undefined-- 72.679
1.82 110.815 74.919
1.83 108.346 75.454
1.84 107.500 75.387
1.85 107.320 75.325
1.86 106.863 75.245
1.87 106.263 75.099
1.88 106.067 74.946
1.89 105.712 74.819
1.90 105.754 74.638
1.91 106.145 74.150
1.92 105.391 73.163
1.93 102.907 72.288
1.94 105.024 72.386
1.95 104.286 72.860
1.96 102.809 73.045
1.97 102.319 72.968
1.98 102.987 72.983
1.99 99.866 73.118
2.00 99.209 73.116
2.01 98.433 73.035
2.02 97.990 73.099
2.03 97.565 73.147
2.04 96.037 72.835
2.05 95.681 72.395
2.06 95.462 72.111
2.07 97.767 71.939
2.08 98.649 71.292
2.09 95.200 69.729
2.10 95.235 67.429
2.11 94.309 64.697
2.12 97.056 61.420
2.13 --undefined-- 57.329
2.14 --undefined-- 52.710
2.15 --undefined-- 49.959
2.16 --undefined-- 53.674
2.17 --undefined-- 62.941
2.18 --undefined-- 69.473
2.19 111.995 73.010
2.20 108.128 74.652
2.21 108.558 75.568
2.22 108.522 76.427
2.23 110.961 76.774
2.24 110.659 76.079
2.25 110.708 75.065
2.26 110.085 74.850
2.27 109.697 75.245
2.28 107.809 75.564
2.29 109.229 75.371
2.30 --undefined-- 74.471
2.31 --undefined-- 72.906
2.32 --undefined-- 70.675
2.33 --undefined-- 66.776
2.34 --undefined-- 59.801
2.35 --undefined-- 50.115
2.36 --undefined-- 47.026
2.37 --undefined-- 47.478
2.38 --undefined-- 46.867
2.39 --undefined-- 46.415
2.40 --undefined-- 46.116
2.41 --undefined-- 44.610
2.42 --undefined-- 42.256
2.43 --undefined-- 40.924
2.44 --undefined-- 40.983
2.45 --undefined-- 42.198
2.46 --undefined-- 42.939
2.47 --undefined-- 42.416
2.48 --undefined-- 41.315
2.49 --undefined-- 40.031
2.50 --undefined-- 38.920
2.51 --undefined-- 37.960
2.52 --undefined-- 37.257
2.53 --undefined-- 38.344
2.54 --undefined-- 39.715
2.55 --undefined-- 39.318
2.56 --undefined-- 37.665
2.57 --undefined-- 36.173
2.58 --undefined-- 36.106
2.59 --undefined-- 36.458
2.60 --undefined-- 36.476
2.61 --undefined-- 36.009
2.62 --undefined-- 35.963
2.63 --undefined-- 37.902
2.64 --undefined-- 40.202
2.65 --undefined-- 41.451
2.66 --undefined-- 41.123
2.67 --undefined-- 40.569
2.68 --undefined-- 47.755
2.69 --undefined-- 55.233
2.70 --undefined-- 58.323
2.71 --undefined-- 58.329
2.72 --undefined-- 60.986
2.73 --undefined-- 66.983
2.74 --undefined-- 72.199
2.75 128.739 75.139
2.76 120.013 76.096
2.77 115.528 75.879
2.78 116.498 75.425
2.79 120.923 75.133
2.80 125.455 74.619
2.81 127.715 73.950
2.82 129.214 73.130
2.83 126.694 71.649
2.84 121.901 69.395
2.85 117.816 66.734
2.86 117.805 65.127
2.87 122.550 67.403
2.88 123.106 71.042
2.89 118.939 73.268
2.90 113.830 74.326
2.91 108.916 74.775
2.92 103.625 74.790
2.93 103.305 74.349
2.94 103.531 73.254
2.95 102.175 71.553
2.96 102.869 69.620
2.97 105.415 67.729
2.98 110.068 66.123
2.99 114.997 65.111
3.00 118.951 64.781
3.01 132.661 65.191
3.02 142.469 66.555
3.03 143.127 68.502
3.04 152.512 70.691
3.05 156.537 73.392
3.06 157.636 76.062
3.07 156.795 77.928
3.08 154.725 78.612
3.09 151.528 78.063
3.10 148.371 76.856
3.11 148.637 75.940
3.12 146.689 75.524
3.13 145.266 75.418
3.14 146.670 75.752
3.15 147.341 76.388
3.16 143.333 76.746
3.17 139.887 76.705
3.18 136.752 76.435
3.19 134.466 76.305
3.20 133.496 76.480
3.21 132.612 76.724
3.22 132.010 76.998
3.23 131.376 77.262
3.24 130.702 77.357
3.25 129.846 77.205
3.26 129.322 76.893
3.27 128.461 76.563
3.28 128.254 76.259
3.29 128.497 75.879
3.30 127.833 75.347
3.31 124.572 74.631
3.32 118.184 73.826
3.33 112.330 72.961
3.34 108.401 71.519
3.35 98.980 69.408
3.36 98.512 68.162
3.37 100.778 68.853
3.38 110.483 70.669
3.39 110.623 72.552
3.40 109.550 73.880
3.41 108.193 74.443
3.42 109.508 74.339
3.43 109.660 73.844
3.44 111.229 73.146
3.45 109.412 72.032
3.46 105.446 70.293
3.47 103.444 68.290
3.48 103.603 66.746
3.49 119.499 67.336
3.50 125.353 70.149
3.51 122.793 72.665
3.52 115.075 73.979
3.53 110.539 74.464
3.54 109.783 74.753
3.55 113.492 74.881
3.56 113.234 74.340
3.57 114.244 73.005
3.58 114.553 71.392
3.59 117.278 70.073
3.60 116.776 69.116
3.61 116.427 68.251
3.62 120.912 68.015
3.63 125.810 69.671
3.64 132.643 72.449
3.65 132.909 74.721
3.66 127.616 75.622
3.67 126.386 74.741
3.68 118.300 71.939
3.69 119.586 67.707
3.70 131.507 63.455
3.71 132.807 59.251
3.72 --undefined-- 53.529
3.73 --undefined-- 46.597
3.74 --undefined-- 46.730
3.75 --undefined-- 49.063
3.76 --undefined-- 48.728
3.77 --undefined-- 51.481
3.78 --undefined-- 62.237
3.79 210.290 71.684
3.80 211.033 77.502
3.81 200.429 80.312
3.82 197.747 81.115
3.83 199.968 81.028
3.84 203.830 80.787
3.85 207.517 80.517
3.86 209.676 80.187
3.87 210.623 79.811
3.88 210.569 79.423
3.89 209.271 78.925
3.90 206.533 77.762
3.91 195.246 75.081
3.92 170.329 70.702
3.93 165.539 66.166
3.94 196.192 63.099
3.95 197.518 60.108
3.96 --undefined-- 58.836
3.97 --undefined-- 64.607
3.98 265.610 72.346
3.99 244.333 78.039
4.00 219.742 81.200
4.01 207.420 82.179
4.02 203.019 81.778
4.03 201.946 81.125
4.04 201.564 80.809
4.05 201.096 80.702
4.06 200.184 80.565
4.07 199.641 80.230
4.08 199.934 79.692
4.09 199.780 79.057
4.10 199.377 78.389
4.11 199.084 77.726
4.12 198.742 77.148
4.13 198.143 76.803
4.14 198.482 76.855
4.15 197.753 77.033
4.16 193.777 76.966
4.17 186.927 76.697
4.18 180.395 76.484
4.19 176.112 76.518
4.20 173.177 76.609
4.21 165.293 76.532
4.22 153.589 76.583
4.23 148.135 76.858
4.24 138.935 76.841
4.25 123.835 76.491
4.26 116.379 76.041
4.27 112.059 75.726
4.28 104.036 75.434
4.29 103.433 75.182
4.30 101.307 75.059
4.31 98.936 74.897
4.32 95.035 74.699
4.33 92.965 74.539
4.34 91.303 74.378
4.35 90.131 73.892
4.36 90.020 73.309
4.37 91.267 72.839
4.38 92.130 72.310
4.39 92.352 71.663
4.40 93.380 71.005
4.41 96.542 70.587
4.42 99.851 70.490
4.43 101.913 70.409
4.44 102.768 70.159
4.45 103.335 69.330
4.46 102.673 67.178
4.47 97.223 63.620
4.48 92.878 61.001
4.49 94.916 60.959
4.50 --undefined-- 61.370
4.51 --undefined-- 65.671
4.52 --undefined-- 71.319
4.53 113.778 74.324
4.54 105.995 75.210
4.55 104.578 75.080
4.56 103.059 74.492
4.57 102.100 73.820
4.58 101.756 73.297
4.59 100.025 72.792
4.60 98.852 72.418
4.61 96.409 72.229
4.62 97.056 72.045
4.63 97.040 71.745
4.64 96.679 71.390
4.65 96.737 71.229
4.66 97.484 71.301
4.67 100.643 71.547
4.68 103.634 71.822
4.69 106.171 71.550
4.70 105.469 69.938
4.71 101.395 66.801
4.72 105.944 62.857
4.73 --undefined-- 58.105
4.74 --undefined-- 52.037
4.75 --undefined-- 48.478
4.76 --undefined-- 46.977
4.77 --undefined-- 47.688
4.78 --undefined-- 53.035
4.79 --undefined-- 59.938
4.80 --undefined-- 67.770
4.81 --undefined-- 73.458
4.82 --undefined-- 76.365
4.83 125.071 77.143
4.84 119.542 76.457
4.85 115.242 74.429
4.86 103.392 70.898
4.87 108.461 66.461
4.88 112.735 62.012
4.89 --undefined-- 56.778
4.90 --undefined-- 51.065
4.91 --undefined-- 46.087
4.92 --undefined-- 45.706
4.93 --undefined-- 47.451
4.94 --undefined-- 46.096
4.95 --undefined-- 43.099
4.96 --undefined-- 43.074
4.97 --undefined-- 43.595
4.98 --undefined-- 43.018
4.99 --undefined-- 43.063
5.00 --undefined-- 44.290
5.01 --undefined-- 45.255
5.02 --undefined-- 44.918
5.03 --undefined-- 43.862
5.04 --undefined-- 44.565
5.05 --undefined-- 46.968
5.06 --undefined-- 49.463
5.07 --undefined-- 50.544
5.08 --undefined-- 50.619
5.09 --undefined-- 50.667
5.10 --undefined-- 50.595
5.11 --undefined-- 51.546
5.12 --undefined-- 57.691
5.13 --undefined-- 63.994
5.14 --undefined-- 68.166
5.15 121.776 70.931
5.16 117.560 73.072
5.17 114.214 74.610
5.18 113.102 75.593
5.19 112.937 76.257
5.20 114.068 76.949
5.21 115.451 77.664
5.22 119.316 78.235
5.23 123.969 78.702
5.24 125.758 79.280
5.25 129.701 80.003
5.26 132.879 80.614
5.27 139.773 80.950
5.28 145.583 81.083
5.29 148.480 80.824
5.30 151.018 79.597
5.31 151.346 76.795
5.32 144.643 72.647
5.33 135.583 68.350
5.34 --undefined-- 65.277
5.35 --undefined-- 62.071
5.36 --undefined-- 59.438
5.37 --undefined-- --undefined--
5.38 --undefined-- --undefined--
5.39 --undefined-- --undefined--
5.40 --undefined-- --undefined--
