Time Pitch Intensity
0.01 --undefined-- --undefined--
0.02 156.699 --undefined--
0.03 162.502 --undefined--
0.04 170.601 --undefined--
0.05 177.072 74.835
0.06 182.729 74.911
0.07 189.538 74.325
0.08 196.037 73.314
0.09 202.102 72.277
0.10 206.474 71.790
0.11 208.901 71.895
0.12 212.615 71.993
0.13 216.064 72.157
0.14 217.825 72.450
0.15 219.530 72.691
0.16 221.441 72.726
0.17 223.172 72.589
0.18 225.507 72.394
0.19 228.364 72.282
0.20 231.636 72.221
0.21 236.082 71.989
0.22 242.254 71.538
0.23 247.329 70.949
0.24 247.969 69.957
0.25 244.756 67.867
0.26 239.381 63.875
0.27 231.877 57.351
0.28 --undefined-- 48.965
0.29 --undefined-- 44.654
0.30 --undefined-- 44.433
0.31 --undefined-- 44.638
0.32 --undefined-- 45.125
0.33 --undefined-- 46.001
0.34 --undefined-- 47.376
0.35 --undefined-- 53.684
0.36 --undefined-- 61.851
0.37 280.678 66.686
0.38 265.819 68.811
0.39 261.210 69.668
0.40 259.657 70.349
0.41 252.932 71.006
0.42 --undefined-- 71.452
0.43 --undefined-- 71.470
0.44 --undefined-- 71.008
0.45 211.763 70.281
0.46 210.265 69.616
0.47 208.831 69.169
0.48 208.547 68.962
0.49 208.061 68.723
0.50 208.714 68.303
0.51 210.084 67.983
0.52 212.950 68.033
0.53 214.356 68.296
0.54 217.661 68.547
0.55 221.765 68.631
0.56 224.644 68.421
0.57 226.268 68.123
0.58 232.277 68.184
0.59 235.709 68.606
0.60 235.396 69.003
0.61 233.329 69.208
0.62 230.267 69.280
0.63 227.396 69.251
0.64 225.221 69.092
0.65 223.633 68.774
0.66 222.264 68.278
0.67 220.421 67.555
0.68 218.299 66.547
0.69 215.350 64.945
0.70 211.697 62.070
0.71 207.795 57.098
0.72 --undefined-- 49.351
0.73 --undefined-- 40.570
0.74 --undefined-- 39.819
0.75 --undefined-- 41.201
0.76 --undefined-- 42.910
0.77 --undefined-- 48.176
0.78 --undefined-- 58.236
0.79 --undefined-- 65.308
0.80 185.718 69.139
0.81 173.530 70.864
0.82 158.246 71.695
0.83 150.277 72.121
0.84 145.894 71.950
0.85 138.119 71.571
0.86 129.539 71.449
0.87 130.505 71.736
0.88 132.576 72.278
0.89 133.373 72.599
0.90 134.921 72.639
0.91 136.521 72.372
0.92 139.569 71.670
0.93 166.990 70.966
0.94 167.915 70.238
0.95 174.808 68.736
0.96 179.469 65.979
0.97 188.348 61.777
0.98 192.359 56.051
0.99 --undefined-- 49.441
1.00 --undefined-- 48.709
1.01 --undefined-- 51.387
1.02 --undefined-- 54.238
1.03 251.319 61.662
1.04 251.424 68.162
1.05 242.474 71.722
1.06 230.037 72.981
1.07 --undefined-- 72.435
1.08 --undefined-- 70.099
1.09 --undefined-- 65.781
1.10 --undefined-- 59.250
1.11 --undefined-- 50.853
1.12 --undefined-- 46.452
1.13 --undefined-- 53.607
1.14 --undefined-- 60.878
1.15 --undefined-- 65.431
1.16 127.233 67.973
1.17 129.410 69.177
1.18 135.809 69.855
1.19 124.379 70.128
1.20 118.746 69.798
1.21 115.199 69.251
1.22 107.960 68.757
1.23 105.884 68.024
1.24 103.728 66.856
1.25 102.334 65.322
1.26 101.602 63.603
1.27 105.617 62.478
1.28 114.922 62.733
1.29 129.026 64.241
1.30 139.256 66.099
1.31 143.939 67.813
1.32 145.874 69.053
1.33 143.317 69.669
1.34 139.568 70.140
1.35 136.792 69.969
1.36 135.145 68.247
1.37 128.313 65.180
1.38 134.819 61.727
1.39 166.303 58.419
1.40 167.453 56.236
1.41 163.048 54.757
1.42 166.039 51.672
1.43 --undefined-- 46.604
1.44 --undefined-- 44.659
1.45 --undefined-- 52.531
1.46 --undefined-- 59.678
1.47 --undefined-- 63.852
1.48 --undefined-- 65.786
1.49 115.273 66.522
1.50 108.705 66.569
1.51 104.527 66.041
1.52 102.520 64.975
1.53 98.408 62.898
1.54 97.715 59.723
1.55 94.772 56.426
1.56 --undefined-- 53.574
1.57 --undefined-- 50.624
1.58 --undefined-- 46.676
1.59 --undefined-- 42.890
1.60 --undefined-- 41.622
1.61 --undefined-- 47.345
1.62 --undefined-- 56.286
1.63 --undefined-- 62.806
1.64 165.768 66.731
1.65 164.323 68.701
1.66 164.468 69.477
1.67 166.899 69.512
1.68 172.306 69.294
1.69 180.099 69.292
1.70 179.392 69.483
1.71 177.007 69.524
1.72 172.386 69.443
1.73 172.095 69.896
1.74 174.537 70.848
1.75 175.299 71.829
1.76 174.341 72.647
1.77 172.282 72.954
1.78 172.425 72.432
1.79 174.842 70.994
1.80 175.795 68.786
1.81 181.165 65.945
1.82 179.703 61.956
1.83 171.348 55.937
1.84 --undefined-- 48.186
1.85 --undefined-- 42.273
1.86 --undefined-- 41.108
1.87 --undefined-- 42.171
1.88 --undefined-- 43.638
1.89 --undefined-- 44.726
1.90 --undefined-- 45.682
1.91 --undefined-- 46.879
1.92 --undefined-- 47.665
1.93 --undefined-- 48.106
1.94 --undefined-- 48.324
1.95 --undefined-- 47.714
1.96 --undefined-- 46.066
1.97 --undefined-- 43.887
1.98 --undefined-- 42.248
1.99 --undefined-- 41.831
2.00 --undefined-- 42.207
2.01 --undefined-- 41.839
2.02 --undefined-- 40.620
2.03 --undefined-- 39.389
2.04 --undefined-- 38.796
2.05 --undefined-- 38.273
2.06 --undefined-- 37.126
2.07 --undefined-- 36.271
2.08 --undefined-- 36.426
2.09 --undefined-- 39.038
2.10 --undefined-- 45.081
2.11 --undefined-- 55.769
2.12 --undefined-- 64.345
2.13 163.269 69.539
2.14 154.075 72.427
2.15 149.425 73.985
2.16 138.683 74.640
2.17 135.711 74.681
2.18 134.273 74.370
2.19 133.021 73.633
2.20 131.983 72.550
2.21 131.993 71.509
2.22 132.016 70.903
2.23 131.110 70.434
2.24 128.348 69.543
2.25 124.642 68.458
2.26 124.041 67.663
2.27 125.668 67.229
2.28 126.820 67.083
2.29 128.192 67.185
2.30 130.099 67.508
2.31 131.426 68.006
2.32 132.658 68.592
2.33 134.298 69.154
2.34 135.356 69.587
2.35 136.845 69.831
2.36 137.934 69.872
2.37 139.881 69.880
2.38 144.063 70.096
2.39 148.934 70.488
2.40 152.946 70.725
2.41 155.554 70.887
2.42 160.837 71.175
2.43 167.480 71.420
2.44 171.877 71.724
2.45 173.764 72.260
2.46 173.452 72.827
2.47 171.875 73.197
2.48 168.788 73.135
2.49 165.921 72.679
2.50 162.898 72.253
2.51 160.170 71.830
2.52 157.691 70.718
2.53 151.194 68.478
2.54 143.858 65.131
2.55 149.190 61.048
2.56 194.682 56.557
2.57 --undefined-- 51.668
2.58 --undefined-- 47.817
2.59 --undefined-- 50.546
2.60 --undefined-- 57.758
2.61 --undefined-- 62.748
2.62 157.406 65.923
2.63 151.030 67.982
2.64 138.146 69.218
2.65 134.011 69.682
2.66 129.862 68.946
2.67 127.316 66.347
2.68 --undefined-- 61.541
2.69 --undefined-- 54.997
2.70 --undefined-- 48.194
2.71 --undefined-- 43.272
2.72 --undefined-- 43.835
2.73 --undefined-- 48.870
2.74 --undefined-- 50.992
2.75 --undefined-- 50.181
2.76 --undefined-- 49.712
2.77 --undefined-- 51.131
2.78 --undefined-- 55.324
2.79 162.889 60.932
2.80 151.848 64.951
2.81 146.887 67.471
2.82 127.714 69.221
2.83 107.989 70.109
2.84 104.873 69.760
2.85 112.258 68.963
2.86 121.315 68.986
2.87 124.980 69.333
2.88 135.371 69.329
2.89 137.530 68.386
2.90 135.516 65.731
2.91 150.333 61.394
2.92 162.580 55.956
2.93 --undefined-- 49.443
2.94 --undefined-- 43.710
2.95 --undefined-- 42.764
2.96 --undefined-- 47.842
2.97 --undefined-- 55.779
2.98 --undefined-- 63.490
2.99 --undefined-- 69.156
3.00 198.288 72.248
3.01 191.087 73.306
3.02 --undefined-- 73.038
3.03 --undefined-- 71.552
3.04 --undefined-- 68.336
3.05 --undefined-- 63.157
3.06 --undefined-- 56.253
3.07 --undefined-- 48.740
3.08 --undefined-- 44.552
3.09 --undefined-- 43.229
3.10 --undefined-- 46.240
3.11 --undefined-- 51.935
3.12 --undefined-- 56.229
3.13 --undefined-- 60.486
3.14 121.150 63.017
3.15 120.140 62.715
3.16 104.630 59.982
3.17 --undefined-- 55.390
3.18 --undefined-- 52.297
3.19 --undefined-- 59.541
3.20 --undefined-- 65.118
3.21 --undefined-- 67.812
3.22 107.083 68.546
3.23 103.521 68.227
3.24 100.341 67.537
3.25 96.940 66.882
3.26 94.710 66.533
3.27 96.227 66.566
3.28 100.327 66.926
3.29 105.162 67.612
3.30 111.566 68.386
3.31 119.642 68.937
3.32 128.941 69.373
3.33 137.152 70.019
3.34 144.299 71.018
3.35 151.459 72.072
3.36 158.518 72.791
3.37 165.837 73.150
3.38 169.287 73.385
3.39 171.547 73.815
3.40 173.851 74.414
3.41 176.123 74.807
3.42 177.957 74.736
3.43 181.271 74.225
3.44 184.668 73.203
3.45 187.750 71.458
3.46 192.975 69.131
3.47 199.392 66.855
3.48 206.942 64.631
3.49 205.228 61.440
3.50 196.708 56.392
3.51 --undefined-- 49.563
3.52 --undefined-- 44.048
3.53 --undefined-- 42.124
3.54 --undefined-- 40.578
3.55 --undefined-- 38.477
3.56 --undefined-- 37.629
3.57 --undefined-- 38.540
3.58 --undefined-- 39.159
3.59 --undefined-- 38.728
3.60 --undefined-- 37.473
3.61 --undefined-- 40.806
3.62 --undefined-- 47.109
3.63 --undefined-- 49.963
3.64 --undefined-- 49.765
3.65 --undefined-- 48.150
3.66 --undefined-- 47.715
3.67 --undefined-- 55.083
3.68 --undefined-- 63.204
3.69 157.150 67.903
3.70 143.814 69.829
3.71 134.728 70.055
3.72 126.488 69.758
3.73 122.473 69.504
3.74 119.482 69.143
3.75 114.168 68.491
3.76 112.331 67.737
3.77 113.880 66.978
3.78 111.389 66.434
3.79 110.544 66.115
3.80 111.427 66.052
3.81 111.327 66.180
3.82 112.417 66.164
3.83 113.179 65.904
3.84 110.163 65.742
3.85 106.327 65.684
3.86 104.316 65.410
3.87 102.079 65.267
3.88 96.619 65.235
3.89 97.419 64.966
3.90 92.996 64.617
3.91 92.441 64.287
3.92 94.850 63.831
3.93 99.720 63.489
3.94 104.812 63.983
3.95 115.736 65.474
3.96 120.766 66.997
3.97 126.768 68.097
3.98 133.605 69.296
3.99 144.602 70.922
4.00 152.154 72.306
4.01 155.901 72.979
4.02 159.375 73.138
4.03 162.766 73.172
4.04 163.701 73.241
4.05 163.270 73.239
4.06 161.941 73.021
4.07 159.913 72.242
4.08 152.090 70.447
4.09 146.396 67.295
4.10 156.911 63.252
4.11 161.324 59.634
4.12 163.327 55.741
4.13 --undefined-- 50.497
4.14 --undefined-- 45.191
4.15 --undefined-- 43.972
4.16 --undefined-- 49.644
4.17 --undefined-- 57.970
4.18 --undefined-- 64.206
4.19 --undefined-- 67.712
4.20 --undefined-- 69.334
4.21 --undefined-- 69.802
4.22 --undefined-- 69.727
4.23 114.443 69.525
4.24 109.261 69.314
4.25 105.962 69.058
4.26 105.789 68.802
4.27 105.761 68.342
4.28 104.031 67.157
4.29 101.100 64.939
4.30 90.445 61.931
4.31 --undefined-- 59.056
4.32 --undefined-- 56.993
4.33 --undefined-- 55.632
4.34 --undefined-- 55.674
4.35 --undefined-- 57.450
4.36 79.158 59.540
4.37 85.862 61.482
4.38 92.458 63.045
4.39 97.649 63.988
4.40 102.806 64.751
4.41 101.464 65.732
4.42 100.564 66.315
4.43 101.949 66.140
4.44 104.743 65.757
4.45 105.234 65.759
4.46 105.107 66.054
4.47 105.511 66.514
4.48 105.148 66.686
4.49 105.841 66.461
4.50 105.809 66.020
4.51 106.841 65.643
4.52 111.053 65.586
4.53 112.868 65.935
4.54 113.376 66.720
4.55 114.026 67.311
4.56 118.592 67.486
4.57 122.167 67.581
4.58 125.304 67.665
4.59 127.692 67.151
4.60 131.717 65.613
4.61 133.547 63.058
4.62 143.447 59.672
4.63 150.198 55.493
4.64 --undefined-- 49.687
4.65 --undefined-- 44.740
4.66 --undefined-- 46.805
4.67 --undefined-- 55.059
4.68 --undefined-- 62.995
4.69 --undefined-- 67.742
4.70 143.135 69.886
4.71 135.406 70.334
4.72 130.482 70.284
4.73 128.164 70.219
4.74 127.553 69.825
4.75 126.175 69.237
4.76 125.082 69.424
4.77 129.877 70.382
4.78 132.567 71.142
4.79 133.921 71.613
4.80 133.641 71.953
4.81 132.224 72.160
4.82 130.388 72.187
4.83 127.500 72.135
4.84 122.960 72.072
4.85 119.701 71.698
4.86 117.252 70.611
4.87 111.573 69.127
4.88 107.419 68.038
4.89 102.854 67.357
4.90 102.835 66.824
4.91 103.201 66.414
4.92 100.465 65.952
4.93 102.288 65.746
4.94 100.438 65.829
4.95 101.615 66.096
4.96 101.694 66.407
4.97 103.716 66.803
4.98 103.081 67.126
4.99 105.032 67.107
5.00 105.732 66.700
5.01 104.976 66.024
5.02 104.753 65.360
5.03 105.008 64.849
5.04 105.869 64.391
5.05 108.038 64.260
5.06 110.741 64.779
5.07 114.008 65.565
5.08 115.588 66.003
5.09 117.597 65.987
5.10 118.934 65.657
5.11 119.782 64.882
5.12 122.148 63.455
5.13 135.719 61.360
5.14 137.595 58.126
5.15 --undefined-- 53.242
5.16 --undefined-- 47.906
5.17 --undefined-- 45.881
5.18 --undefined-- 44.745
5.19 --undefined-- 42.717
5.20 --undefined-- 42.573
5.21 --undefined-- 46.673
5.22 --undefined-- 55.930
5.23 221.599 64.154
5.24 218.061 68.958
5.25 195.267 71.091
5.26 188.738 71.830
5.27 163.823 72.012
5.28 162.636 71.585
5.29 160.930 70.978
5.30 157.467 70.936
5.31 156.989 71.267
5.32 150.644 71.230
5.33 152.492 70.909
5.34 154.369 70.776
5.35 159.633 70.604
5.36 164.379 70.157
5.37 166.131 --undefined--
5.38 166.130 --undefined--
5.39 --undefined-- --undefined--
5.40 --undefined-- --undefined--
