Time Pitch Intensity
0.01 --undefined-- --undefined--
0.02 200.810 --undefined--
0.03 196.030 --undefined--
0.04 191.134 --undefined--
0.05 188.414 78.390
0.06 187.030 76.503
0.07 181.793 74.327
0.08 176.590 71.851
0.09 167.450 68.496
0.10 160.689 65.049
0.11 199.201 67.553
0.12 196.595 72.345
0.13 192.096 74.730
0.14 185.987 74.404
0.15 174.365 72.109
0.16 159.895 69.967
0.17 158.870 70.897
0.18 156.748 73.769
0.19 151.960 76.183
0.20 142.968 77.157
0.21 137.427 76.911
0.22 128.868 76.056
0.23 121.149 75.170
0.24 118.231 74.422
0.25 115.843 72.809
0.26 114.744 69.314
0.27 117.282 63.216
0.28 --undefined-- 55.024
0.29 --undefined-- 51.809
0.30 --undefined-- 51.743
0.31 --undefined-- 50.143
0.32 --undefined-- 47.557
0.33 --undefined-- 46.878
0.34 --undefined-- 56.903
0.35 --undefined-- 65.247
0.36 147.901 70.108
0.37 132.937 72.518
0.38 129.813 73.456
0.39 127.464 73.578
0.40 123.471 73.396
0.41 117.916 73.307
0.42 114.436 72.970
0.43 111.401 71.637
0.44 109.148 69.484
0.45 110.872 68.204
0.46 125.666 68.089
0.47 119.569 68.521
0.48 121.251 69.381
0.49 125.771 70.895
0.50 125.889 72.504
0.51 124.553 73.551
0.52 124.616 74.269
0.53 124.744 74.873
0.54 124.706 75.116
0.55 125.499 74.953
0.56 125.857 74.511
0.57 124.097 73.726
0.58 120.885 72.222
0.59 --undefined-- 69.801
0.60 --undefined-- 66.668
0.61 --undefined-- 62.257
0.62 --undefined-- 56.028
0.63 --undefined-- 49.027
0.64 --undefined-- 43.779
0.65 --undefined-- 43.048
0.66 --undefined-- 43.178
0.67 --undefined-- 42.175
0.68 --undefined-- 41.310
0.69 --undefined-- 40.383
0.70 --undefined-- 39.313
0.71 --undefined-- 38.448
0.72 --undefined-- 38.382
0.73 --undefined-- 39.837
0.74 --undefined-- 41.969
0.75 --undefined-- 43.032
0.76 --undefined-- 43.035
0.77 --undefined-- 43.233
0.78 --undefined-- 43.699
0.79 --undefined-- 44.180
0.80 --undefined-- 44.952
0.81 --undefined-- 45.513
0.82 --undefined-- 45.512
0.83 --undefined-- 45.129
0.84 --undefined-- 44.461
0.85 --undefined-- 43.764
0.86 --undefined-- 42.701
0.87 --undefined-- 40.969
0.88 --undefined-- 39.594
0.89 --undefined-- 39.487
0.90 --undefined-- 39.465
0.91 --undefined-- 39.094
0.92 --undefined-- 38.691
0.93 --undefined-- 38.418
0.94 --undefined-- 37.963
0.95 --undefined-- 37.286
0.96 --undefined-- 36.938
0.97 --undefined-- 37.912
0.98 --undefined-- 38.170
0.99 --undefined-- 40.978
1.00 --undefined-- 53.626
1.01 --undefined-- 62.646
1.02 --undefined-- 68.586
1.03 146.433 72.942
1.04 143.438 75.974
1.05 141.169 77.715
1.06 140.269 78.426
1.07 139.019 78.273
1.08 138.150 77.399
1.09 137.374 76.017
1.10 135.408 74.667
1.11 139.593 74.136
1.12 143.304 74.506
1.13 143.829 75.395
1.14 142.538 76.128
1.15 141.383 76.653
1.16 140.257 76.908
1.17 139.899 76.750
1.18 140.265 76.467
1.19 140.046 76.119
1.20 139.895 75.107
1.21 134.750 72.510
1.22 126.849 67.692
1.23 121.549 61.519
1.24 --undefined-- 55.873
1.25 --undefined-- 53.517
1.26 --undefined-- 54.987
1.27 --undefined-- 55.605
1.28 --undefined-- 56.225
1.29 --undefined-- 57.609
1.30 --undefined-- 59.102
1.31 --undefined-- 59.919
1.32 --undefined-- 59.833
1.33 --undefined-- 58.924
1.34 --undefined-- 59.220
1.35 --undefined-- 65.529
1.36 150.808 70.652
1.37 140.135 73.053
1.38 139.178 73.741
1.39 138.154 73.707
1.40 136.806 72.999
1.41 126.760 71.689
1.42 126.844 71.853
1.43 129.877 72.952
1.44 131.013 73.341
1.45 132.145 73.438
1.46 133.209 73.656
1.47 134.710 73.854
1.48 136.512 73.724
1.49 136.690 73.020
1.50 134.150 71.257
1.51 127.082 67.791
1.52 111.647 62.293
1.53 --undefined-- 60.162
1.54 --undefined-- 64.516
1.55 --undefined-- 65.724
1.56 --undefined-- 63.508
1.57 --undefined-- 60.501
1.58 --undefined-- 60.860
1.59 115.891 64.014
1.60 116.093 66.888
1.61 126.114 69.060
1.62 126.871 71.024
1.63 125.662 72.599
1.64 123.872 73.593
1.65 123.418 74.051
1.66 121.118 74.136
1.67 120.703 74.070
1.68 119.088 74.038
1.69 118.203 74.131
1.70 118.407 74.108
1.71 118.830 74.061
1.72 119.029 74.204
1.73 119.332 74.108
1.74 121.927 73.289
1.75 125.706 72.039
1.76 126.410 71.090
1.77 125.551 70.358
1.78 125.988 69.381
1.79 --undefined-- 67.538
1.80 --undefined-- 64.447
1.81 --undefined-- 60.014
1.82 --undefined-- 54.456
1.83 --undefined-- 49.429
1.84 --undefined-- 46.658
1.85 --undefined-- 46.288
1.86 --undefined-- 48.814
1.87 --undefined-- 50.653
1.88 --undefined-- 51.844
1.89 131.212 54.418
1.90 130.023 57.576
1.91 133.123 60.487
1.92 133.537 63.444
1.93 138.833 66.793
1.94 142.241 70.401
1.95 150.442 73.876
1.96 149.151 76.259
1.97 146.859 77.529
1.98 145.351 78.243
1.99 143.499 78.747
2.00 145.482 79.253
2.01 148.700 79.154
2.02 151.930 78.309
2.03 156.548 77.369
2.04 163.975 76.181
2.05 164.539 74.778
2.06 157.383 73.237
2.07 153.336 70.789
2.08 150.121 66.690
2.09 --undefined-- 60.868
2.10 --undefined-- 55.849
2.11 --undefined-- 53.483
2.12 --undefined-- 51.798
2.13 --undefined-- 50.719
2.14 --undefined-- 49.788
2.15 --undefined-- 48.956
2.16 --undefined-- 48.517
2.17 --undefined-- 51.396
2.18 --undefined-- 62.712
2.19 230.432 71.269
2.20 213.988 76.210
2.21 198.550 78.461
2.22 193.197 79.221
2.23 190.142 79.842
2.24 188.138 80.475
2.25 186.805 80.693
2.26 185.912 80.535
2.27 185.669 80.154
2.28 186.139 79.637
2.29 186.790 78.939
2.30 187.503 77.912
2.31 187.471 76.588
2.32 187.138 75.083
2.33 186.333 73.435
2.34 183.296 72.536
2.35 185.934 72.822
2.36 183.919 72.810
2.37 178.348 71.771
2.38 170.722 69.474
2.39 164.479 65.488
2.40 159.271 59.297
2.41 --undefined-- 50.929
2.42 --undefined-- 46.551
2.43 --undefined-- 49.951
2.44 --undefined-- 58.622
2.45 --undefined-- 67.425
2.46 --undefined-- 72.795
2.47 150.487 75.246
2.48 140.556 75.677
2.49 136.011 75.094
2.50 132.933 74.165
2.51 130.769 73.170
2.52 128.798 72.571
2.53 129.931 72.911
2.54 131.250 73.334
2.55 130.872 73.170
2.56 129.465 72.626
2.57 127.399 71.664
2.58 123.471 69.953
2.59 116.769 67.240
2.60 113.229 63.690
2.61 114.360 59.346
2.62 --undefined-- 53.603
2.63 --undefined-- 48.312
2.64 --undefined-- 46.091
2.65 --undefined-- 45.204
2.66 --undefined-- 44.656
2.67 --undefined-- 49.176
2.68 --undefined-- 57.970
2.69 171.145 64.142
2.70 161.061 67.828
2.71 162.005 69.825
2.72 163.033 70.758
2.73 164.100 70.999
2.74 164.992 70.675
2.75 165.211 69.824
2.76 163.567 68.541
2.77 160.664 67.239
2.78 161.669 66.750
2.79 177.923 68.219
2.80 196.761 71.991
2.81 200.729 75.849
2.82 207.226 77.778
2.83 199.045 77.484
2.84 187.341 76.328
2.85 182.243 75.352
2.86 177.882 74.187
2.87 176.011 72.578
2.88 174.075 69.442
2.89 --undefined-- 63.589
2.90 --undefined-- 54.615
2.91 --undefined-- 46.074
2.92 --undefined-- 41.984
2.93 --undefined-- 40.445
2.94 --undefined-- 41.084
2.95 --undefined-- 42.267
2.96 --undefined-- 41.149
2.97 --undefined-- 37.955
2.98 --undefined-- 38.008
2.99 --undefined-- 50.249
3.00 --undefined-- 61.091
3.01 --undefined-- 68.079
3.02 150.155 72.317
3.03 147.918 74.606
3.04 143.419 75.396
3.05 137.207 75.425
3.06 134.316 75.164
3.07 128.708 74.682
3.08 123.993 74.119
3.09 118.739 72.731
3.10 116.705 69.943
3.11 105.414 66.124
3.12 99.680 61.607
3.13 90.058 57.089
3.14 --undefined-- 54.980
3.15 --undefined-- 54.307
3.16 --undefined-- 54.265
3.17 --undefined-- 57.643
3.18 115.621 62.544
3.19 103.665 66.320
3.20 103.982 68.494
3.21 105.567 69.307
3.22 105.780 69.419
3.23 106.768 69.535
3.24 107.594 69.801
3.25 109.099 70.381
3.26 114.860 71.289
3.27 119.292 71.996
3.28 127.128 72.264
3.29 131.764 72.032
3.30 136.266 70.932
3.31 131.474 68.315
3.32 122.497 63.697
3.33 116.368 57.870
3.34 --undefined-- 54.436
3.35 --undefined-- 60.786
3.36 --undefined-- 65.893
3.37 --undefined-- 67.105
3.38 --undefined-- 68.020
3.39 165.355 72.709
3.40 157.463 76.452
3.41 150.526 78.491
3.42 148.393 79.634
3.43 146.987 80.020
3.44 145.160 79.691
3.45 144.751 79.235
3.46 145.095 78.890
3.47 145.377 78.291
3.48 146.212 77.198
3.49 147.792 76.240
3.50 146.408 75.743
3.51 149.830 74.923
3.52 150.158 73.921
3.53 149.844 73.245
3.54 148.317 72.608
3.55 146.094 71.577
3.56 143.716 69.894
3.57 142.554 67.418
3.58 146.496 64.210
3.59 146.827 59.931
3.60 --undefined-- 53.426
3.61 --undefined-- 45.834
3.62 --undefined-- 42.677
3.63 --undefined-- 41.978
3.64 --undefined-- 41.202
3.65 --undefined-- 39.423
3.66 --undefined-- 37.395
3.67 --undefined-- 36.169
3.68 --undefined-- 36.427
3.69 --undefined-- 36.918
3.70 --undefined-- 36.050
3.71 --undefined-- 35.095
3.72 --undefined-- 35.217
3.73 --undefined-- 37.249
3.74 --undefined-- 40.307
3.75 --undefined-- 41.673
3.76 --undefined-- 40.199
3.77 --undefined-- 38.679
3.78 --undefined-- 39.834
3.79 --undefined-- 41.798
3.80 --undefined-- 48.811
3.81 --undefined-- 58.784
3.82 --undefined-- 66.967
3.83 160.527 71.825
3.84 161.203 74.135
3.85 161.707 75.069
3.86 161.514 75.543
3.87 159.469 75.849
3.88 156.342 75.771
3.89 149.777 74.822
3.90 142.484 72.328
3.91 137.289 67.628
3.92 --undefined-- 60.439
3.93 --undefined-- 52.725
3.94 --undefined-- 49.247
3.95 --undefined-- 47.798
3.96 --undefined-- 47.385
3.97 --undefined-- 48.254
3.98 --undefined-- 49.552
3.99 --undefined-- 55.980
4.00 --undefined-- 64.398
4.01 --undefined-- 69.512
4.02 130.553 71.815
4.03 128.212 72.307
4.04 123.007 72.180
4.05 121.252 72.102
4.06 120.765 71.999
4.07 120.460 71.364
4.08 115.912 69.592
4.09 111.522 66.108
4.10 --undefined-- 60.706
4.11 --undefined-- 58.010
4.12 --undefined-- 61.078
4.13 --undefined-- 63.129
4.14 --undefined-- 68.041
4.15 --undefined-- 73.035
4.16 125.179 75.642
4.17 122.454 76.288
4.18 119.662 75.916
4.19 119.392 75.475
4.20 119.593 74.838
4.21 117.950 73.195
4.22 115.847 69.507
4.23 97.341 63.151
4.24 --undefined-- 55.697
4.25 --undefined-- 51.661
4.26 --undefined-- 55.868
4.27 --undefined-- 65.847
4.28 --undefined-- 72.767
4.29 158.461 76.414
4.30 150.067 77.782
4.31 146.937 77.942
4.32 145.108 77.396
4.33 144.284 76.166
4.34 136.757 74.493
4.35 137.429 73.219
4.36 135.130 71.850
4.37 131.265 69.012
4.38 122.652 65.630
4.39 141.940 67.633
4.40 147.483 71.591
4.41 150.033 73.941
4.42 149.780 75.138
4.43 148.010 76.120
4.44 147.345 76.604
4.45 144.594 75.491
4.46 136.446 72.425
4.47 129.052 69.311
4.48 125.788 68.711
4.49 122.286 69.296
4.50 120.631 70.185
4.51 120.542 71.351
4.52 115.885 72.498
4.53 112.677 72.593
4.54 107.451 71.500
4.55 101.881 70.439
4.56 100.925 70.062
4.57 102.591 69.727
4.58 103.792 69.050
4.59 102.722 67.202
4.60 --undefined-- 62.837
4.61 --undefined-- 55.541
4.62 --undefined-- 48.870
4.63 --undefined-- 48.532
4.64 --undefined-- 48.821
4.65 --undefined-- 48.003
4.66 --undefined-- 45.825
4.67 --undefined-- 44.356
4.68 --undefined-- 47.360
4.69 --undefined-- 57.126
4.70 --undefined-- 65.007
4.71 136.392 69.398
4.72 123.898 71.266
4.73 120.329 71.989
4.74 115.789 72.329
4.75 112.132 72.106
4.76 110.345 71.363
4.77 109.021 70.646
4.78 109.738 70.321
4.79 111.058 69.780
4.80 111.449 67.903
4.81 --undefined-- 63.502
4.82 --undefined-- 56.131
4.83 --undefined-- 46.622
4.84 --undefined-- 43.697
4.85 --undefined-- 48.300
4.86 --undefined-- 50.592
4.87 --undefined-- 49.528
4.88 --undefined-- 45.351
4.89 --undefined-- 40.415
4.90 --undefined-- 39.433
4.91 --undefined-- 38.587
4.92 --undefined-- 36.519
4.93 --undefined-- 37.419
4.94 --undefined-- 43.491
4.95 --undefined-- 54.245
4.96 --undefined-- 63.601
4.97 136.598 69.075
4.98 131.221 71.206
4.99 120.497 70.747
5.00 113.992 68.331
5.01 98.820 64.287
5.02 88.576 59.416
5.03 --undefined-- 55.098
5.04 --undefined-- 50.838
5.05 --undefined-- 45.883
5.06 --undefined-- 41.977
5.07 --undefined-- 44.058
5.08 --undefined-- 48.642
5.09 --undefined-- 56.199
5.10 --undefined-- 63.870
5.11 133.066 69.005
5.12 134.247 72.295
5.13 136.911 74.430
5.14 137.913 75.801
5.15 137.903 76.103
5.16 136.094 75.008
5.17 133.851 73.401
5.18 130.403 73.203
5.19 124.144 73.926
5.20 115.787 73.832
5.21 109.645 72.426
5.22 102.105 70.425
5.23 100.913 68.954
5.24 100.183 67.663
5.25 98.130 65.561
5.26 108.094 62.198
5.27 --undefined-- 57.036
5.28 --undefined-- 49.507
5.29 --undefined-- 42.151
5.30 --undefined-- 38.700
5.31 --undefined-- 39.431
5.32 --undefined-- 48.372
5.33 --undefined-- 56.023
5.34 --undefined-- 59.590
5.35 --undefined-- 59.444
5.36 --undefined-- 56.236
5.37 --undefined-- 52.975
5.38 --undefined-- 56.308
5.39 120.964 61.733
5.40 106.917 64.680
5.41 104.567 65.665
5.42 102.729 66.114
5.43 100.142 66.656
5.44 98.720 67.007
5.45 98.770 67.412
5.46 100.870 68.383
5.47 107.122 69.841
5.48 109.653 71.287
5.49 113.108 72.646
5.50 116.049 73.525
5.51 118.415 73.382
5.52 123.995 72.852
5.53 129.158 72.936
5.54 132.377 73.054
5.55 134.259 72.294
5.56 135.632 70.376
5.57 142.600 67.598
5.58 142.824 64.082
5.59 --undefined-- 59.902
5.60 --undefined-- 55.003
5.61 --undefined-- 51.510
5.62 --undefined-- 47.658
5.63 --undefined-- 42.710
5.64 --undefined-- 39.691
5.65 --undefined-- 37.535
5.66 --undefined-- 35.841
5.67 --undefined-- 36.132
5.68 --undefined-- 39.594
5.69 --undefined-- 42.337
5.70 --undefined-- 42.186
5.71 --undefined-- 39.759
5.72 --undefined-- 36.504
5.73 --undefined-- 34.414
5.74 --undefined-- 34.936
5.75 --undefined-- 35.958
5.76 --undefined-- 37.047
5.77 --undefined-- 39.622
5.78 --undefined-- 40.876
5.79 --undefined-- 39.862
5.80 --undefined-- 38.443
5.81 --undefined-- 37.724
5.82 --undefined-- 36.796
5.83 --undefined-- 37.034
5.84 --undefined-- 37.340
5.85 --undefined-- 38.559
5.86 --undefined-- 40.149
5.87 --undefined-- 40.303
5.88 --undefined-- 39.405
5.89 --undefined-- 38.417
5.90 --undefined-- 37.776
5.91 --undefined-- 37.804
5.92 --undefined-- 38.551
5.93 --undefined-- 38.866
5.94 --undefined-- 37.096
5.95 --undefined-- 35.562
5.96 --undefined-- 37.479
5.97 --undefined-- 39.848
5.98 --undefined-- 40.032
5.99 --undefined-- 38.736
6.00 --undefined-- 39.896
6.01 --undefined-- 41.678
6.02 --undefined-- 41.521
6.03 --undefined-- 40.382
6.04 --undefined-- 39.949
6.05 --undefined-- 39.846
6.06 --undefined-- 39.969
6.07 --undefined-- 40.697
6.08 --undefined-- --undefined--
6.09 --undefined-- --undefined--
6.10 --undefined-- --undefined--
6.11 --undefined-- --undefined--
