Time Pitch Intensity
0.01 --undefined-- --undefined--
0.02 206.827 --undefined--
0.03 206.520 --undefined--
0.04 206.290 --undefined--
0.05 206.170 69.182
0.06 204.309 67.721
0.07 195.161 65.251
0.08 188.595 61.794
0.09 193.125 57.767
0.10 --undefined-- 52.139
0.11 --undefined-- 44.814
0.12 --undefined-- 41.296
0.13 --undefined-- 40.308
0.14 --undefined-- 39.037
0.15 --undefined-- 37.811
0.16 --undefined-- 38.796
0.17 --undefined-- 40.222
0.18 --undefined-- 40.357
0.19 --undefined-- 41.101
0.20 --undefined-- 42.539
0.21 --undefined-- 42.851
0.22 --undefined-- 43.012
0.23 --undefined-- 44.204
0.24 --undefined-- 45.606
0.25 --undefined-- 46.581
0.26 --undefined-- 50.916
0.27 --undefined-- 58.727
0.28 278.343 63.794
0.29 270.542 66.443
0.30 270.495 67.984
0.31 271.071 69.027
0.32 271.956 69.681
0.33 272.707 69.912
0.34 273.130 69.799
0.35 272.406 69.418
0.36 266.093 68.672
0.37 253.681 67.824
0.38 243.312 67.746
0.39 235.139 68.595
0.40 226.944 69.477
0.41 216.520 69.609
0.42 201.241 68.814
0.43 186.386 67.480
0.44 173.818 66.057
0.45 164.256 64.977
0.46 154.892 64.461
0.47 150.421 64.544
0.48 147.338 64.960
0.49 145.768 65.662
0.50 144.169 66.579
0.51 143.202 67.450
0.52 142.664 67.982
0.53 141.491 67.990
0.54 138.174 67.652
0.55 137.706 67.267
0.56 138.868 66.964
0.57 139.807 66.943
0.58 140.207 67.162
0.59 141.800 67.412
0.60 139.799 67.555
0.61 135.802 67.850
0.62 137.901 68.226
0.63 137.934 68.159
0.64 137.122 67.674
0.65 137.093 67.135
0.66 135.522 66.621
0.67 135.866 66.262
0.68 136.906 66.088
0.69 137.986 65.630
0.70 134.465 64.459
0.71 122.530 62.273
0.72 122.756 59.178
0.73 --undefined-- 56.302
0.74 --undefined-- 55.442
0.75 --undefined-- 55.953
0.76 --undefined-- 56.439
0.77 --undefined-- 56.261
0.78 --undefined-- 58.355
0.79 180.383 63.292
0.80 179.002 66.778
0.81 173.939 68.399
0.82 168.666 69.035
0.83 165.380 69.269
0.84 162.729 69.274
0.85 162.516 69.283
0.86 163.672 69.475
0.87 164.908 69.946
0.88 165.072 70.344
0.89 165.531 70.185
0.90 168.081 69.910
0.91 177.238 70.380
0.92 183.621 71.057
0.93 191.332 71.075
0.94 199.501 70.496
0.95 205.644 69.763
0.96 210.562 69.105
0.97 212.120 68.275
0.98 211.500 66.808
0.99 208.721 64.559
1.00 200.259 61.554
1.01 205.265 58.315
1.02 210.976 54.895
1.03 --undefined-- 49.363
1.04 --undefined-- 45.510
1.05 --undefined-- 50.566
1.06 --undefined-- 55.765
1.07 194.122 60.472
1.08 205.424 64.411
1.09 215.471 67.404
1.10 217.589 69.380
1.11 217.610 70.481
1.12 218.077 71.017
1.13 218.268 71.265
1.14 219.912 71.505
1.15 222.380 71.834
1.16 224.185 71.906
1.17 223.691 70.953
1.18 217.300 68.117
1.19 198.289 63.139
1.20 235.595 60.910
1.21 231.961 65.623
1.22 225.075 68.967
1.23 219.546 70.301
1.24 215.715 70.466
1.25 213.057 70.323
1.26 211.324 70.302
1.27 210.653 70.312
1.28 210.792 70.188
1.29 211.473 69.999
1.30 212.169 69.867
1.31 211.896 69.643
1.32 209.422 68.850
1.33 210.563 67.156
1.34 204.377 64.394
1.35 200.713 61.577
1.36 203.490 61.322
1.37 207.166 63.340
1.38 215.623 65.883
1.39 221.336 68.054
1.40 221.206 69.440
1.41 216.753 70.108
1.42 213.079 70.398
1.43 210.435 70.483
1.44 209.516 70.151
1.45 209.101 69.318
1.46 206.036 67.925
1.47 200.652 65.028
1.48 196.378 59.514
1.49 --undefined-- 51.327
1.50 --undefined-- 43.335
1.51 --undefined-- 39.376
1.52 --undefined-- 39.060
1.53 --undefined-- 38.573
1.54 --undefined-- 37.860
1.55 --undefined-- 38.782
1.56 --undefined-- 38.959
1.57 --undefined-- 40.993
1.58 --undefined-- 46.537
1.59 --undefined-- 52.896
1.60 --undefined-- 60.616
1.61 205.874 65.811
1.62 188.806 68.197
1.63 179.259 69.101
1.64 174.902 69.756
1.65 172.464 70.258
1.66 171.108 70.366
1.67 169.976 70.056
1.68 168.856 69.515
1.69 168.416 69.039
1.70 168.322 68.730
1.71 168.560 68.515
1.72 169.026 68.405
1.73 169.741 68.478
1.74 170.548 68.642
1.75 170.716 68.716
1.76 170.326 68.614
1.77 170.166 68.353
1.78 169.554 67.731
1.79 167.690 66.067
1.80 162.624 62.547
1.81 158.628 56.738
1.82 --undefined-- 49.062
1.83 --undefined-- 42.278
1.84 --undefined-- 40.767
1.85 --undefined-- 39.801
1.86 --undefined-- 38.729
1.87 --undefined-- 39.979
1.88 --undefined-- 41.909
1.89 --undefined-- 44.320
1.90 --undefined-- 46.976
1.91 --undefined-- 52.829
1.92 --undefined-- 60.473
1.93 233.671 65.265
1.94 229.953 67.680
1.95 230.206 68.883
1.96 230.068 69.455
1.97 228.083 69.625
1.98 224.653 70.040
1.99 223.742 70.953
2.00 223.803 71.798
2.01 223.170 72.374
2.02 222.494 72.795
2.03 221.997 73.100
2.04 221.111 73.253
2.05 219.938 73.253
2.06 218.869 73.096
2.07 217.506 72.735
2.08 215.589 71.951
2.09 212.690 70.284
2.10 211.557 67.081
2.11 217.979 61.620
2.12 --undefined-- 53.599
2.13 --undefined-- 46.733
2.14 --undefined-- 44.869
2.15 --undefined-- 44.926
2.16 --undefined-- 52.463
2.17 --undefined-- 60.364
2.18 197.861 64.639
2.19 187.494 66.133
2.20 175.082 66.306
2.21 168.306 66.182
2.22 163.106 65.895
2.23 160.319 65.670
2.24 159.359 65.681
2.25 158.578 65.788
2.26 158.040 65.917
2.27 158.324 66.100
2.28 160.012 66.362
2.29 160.422 66.649
2.30 159.461 66.825
2.31 158.211 66.979
2.32 158.185 67.073
2.33 159.224 67.082
2.34 159.574 67.215
2.35 159.821 67.430
2.36 158.763 67.387
2.37 156.385 67.130
2.38 154.311 67.023
2.39 151.426 67.088
2.40 148.944 67.075
2.41 147.298 66.787
2.42 145.847 66.507
2.43 147.745 66.714
2.44 148.848 67.202
2.45 150.040 67.656
2.46 151.696 68.033
2.47 152.614 68.270
2.48 153.813 68.453
2.49 155.428 68.572
2.50 155.910 68.525
2.51 156.007 68.221
2.52 154.587 67.559
2.53 153.391 66.973
2.54 154.791 67.239
2.55 153.940 67.846
2.56 152.743 68.083
2.57 151.547 68.039
2.58 151.057 68.056
2.59 151.354 68.351
2.60 151.431 68.770
2.61 150.967 68.955
2.62 150.675 68.825
2.63 149.707 68.626
2.64 147.431 68.499
2.65 144.884 68.340
2.66 142.258 67.978
2.67 139.682 67.326
2.68 138.498 66.477
2.69 137.064 65.683
2.70 136.436 65.097
2.71 135.134 64.533
2.72 134.537 63.803
2.73 133.317 62.882
2.74 129.742 61.621
2.75 124.512 59.707
2.76 --undefined-- 56.956
2.77 --undefined-- 53.224
2.78 --undefined-- 48.005
2.79 --undefined-- 43.068
2.80 --undefined-- 40.668
2.81 --undefined-- 40.219
2.82 --undefined-- 41.338
2.83 --undefined-- 40.921
2.84 --undefined-- 39.375
2.85 --undefined-- 37.926
2.86 --undefined-- 37.868
2.87 --undefined-- 39.833
2.88 --undefined-- 41.858
2.89 --undefined-- 43.344
2.90 --undefined-- 43.793
2.91 --undefined-- 43.391
2.92 --undefined-- 42.015
2.93 --undefined-- 39.973
2.94 --undefined-- 38.855
2.95 --undefined-- 37.438
2.96 --undefined-- 36.372
2.97 --undefined-- 36.506
2.98 --undefined-- 37.304
2.99 --undefined-- 38.400
3.00 --undefined-- 39.194
3.01 --undefined-- 41.139
3.02 --undefined-- 43.311
3.03 --undefined-- 43.347
3.04 --undefined-- 42.290
3.05 --undefined-- 41.750
3.06 --undefined-- 40.909
3.07 --undefined-- 40.296
3.08 --undefined-- 40.716
3.09 --undefined-- 41.476
3.10 --undefined-- 41.522
3.11 --undefined-- 40.601
3.12 --undefined-- 40.048
3.13 --undefined-- 40.282
3.14 --undefined-- 40.106
3.15 --undefined-- 39.446
3.16 --undefined-- 39.894
3.17 --undefined-- 40.581
3.18 --undefined-- 39.997
3.19 --undefined-- 39.538
3.20 --undefined-- 39.308
3.21 --undefined-- 39.026
3.22 --undefined-- 40.780
3.23 --undefined-- 41.480
3.24 --undefined-- 39.898
3.25 --undefined-- 39.173
3.26 --undefined-- 41.123
3.27 --undefined-- 41.833
3.28 --undefined-- 41.069
3.29 --undefined-- 41.192
3.30 --undefined-- 41.355
3.31 --undefined-- 41.025
3.32 --undefined-- 41.044
3.33 --undefined-- 40.841
3.34 --undefined-- 39.776
3.35 --undefined-- 39.526
3.36 --undefined-- 40.623
3.37 --undefined-- 40.873
3.38 --undefined-- 39.890
3.39 --undefined-- 38.531
3.40 --undefined-- 48.629
3.41 --undefined-- 59.735
3.42 222.856 66.716
3.43 219.288 70.871
3.44 227.339 73.332
3.45 225.667 74.838
3.46 224.419 75.866
3.47 224.205 76.735
3.48 223.801 77.332
3.49 222.476 77.424
3.50 218.348 77.370
3.51 218.537 77.763
3.52 219.462 78.160
3.53 218.497 78.159
3.54 217.132 77.880
3.55 215.667 77.364
3.56 213.308 76.546
3.57 211.075 75.551
3.58 211.598 74.847
3.59 212.107 74.729
3.60 211.071 74.883
3.61 210.366 75.054
3.62 208.875 75.218
3.63 207.849 75.273
3.64 207.389 75.124
3.65 207.112 74.866
3.66 206.748 74.668
3.67 206.385 74.567
3.68 206.288 74.440
3.69 206.099 74.089
3.70 205.365 73.442
3.71 205.216 72.792
3.72 205.770 72.438
3.73 205.778 72.333
3.74 204.773 72.368
3.75 203.565 72.460
3.76 202.569 72.562
3.77 202.631 72.620
3.78 204.664 72.162
3.79 209.764 70.918
3.80 206.500 69.479
3.81 203.018 68.487
3.82 202.960 68.090
3.83 207.479 68.527
3.84 212.984 69.748
3.85 215.709 71.205
3.86 215.979 72.575
3.87 214.660 73.708
3.88 211.772 74.302
3.89 208.329 73.976
3.90 205.159 72.314
3.91 199.679 68.944
3.92 190.864 63.663
3.93 198.926 56.636
3.94 --undefined-- 48.696
3.95 --undefined-- 44.005
3.96 --undefined-- 43.208
3.97 --undefined-- 42.164
3.98 --undefined-- 41.054
3.99 --undefined-- 39.897
4.00 --undefined-- 39.234
4.01 --undefined-- 42.783
4.02 --undefined-- 48.846
4.03 --undefined-- 52.744
4.04 --undefined-- 54.005
4.05 --undefined-- 53.483
4.06 --undefined-- 52.826
4.07 --undefined-- 55.830
4.08 296.743 61.841
4.09 295.701 65.811
4.10 293.902 67.798
4.11 291.978 69.050
4.12 286.304 69.960
4.13 280.431 70.449
4.14 277.253 70.812
4.15 275.553 71.110
4.16 276.023 70.956
4.17 275.787 70.391
4.18 273.310 69.829
4.19 268.956 69.043
4.20 248.892 67.303
4.21 242.116 64.335
4.22 241.415 59.908
4.23 --undefined-- 53.585
4.24 --undefined-- 49.754
4.25 --undefined-- 53.553
4.26 --undefined-- 56.414
4.27 --undefined-- 59.296
4.28 226.051 65.233
4.29 211.380 69.404
4.30 191.667 70.996
4.31 179.120 71.310
4.32 169.865 71.257
4.33 163.460 70.892
4.34 161.651 70.418
4.35 161.646 70.010
4.36 159.605 69.834
4.37 161.034 70.299
4.38 166.696 70.982
4.39 168.576 71.465
4.40 172.460 71.931
4.41 178.697 72.602
4.42 185.963 73.439
4.43 192.673 74.234
4.44 200.148 74.815
4.45 207.973 75.265
4.46 214.315 75.695
4.47 219.555 75.971
4.48 223.853 75.860
4.49 226.220 75.034
4.50 227.098 72.880
4.51 227.579 68.650
4.52 234.874 61.626
4.53 --undefined-- 51.771
4.54 --undefined-- 44.430
4.55 --undefined-- 42.654
4.56 --undefined-- 50.435
4.57 --undefined-- 61.147
4.58 --undefined-- 67.913
4.59 182.674 71.204
4.60 174.968 72.266
4.61 166.764 72.399
4.62 162.783 72.400
4.63 159.497 72.240
4.64 156.800 71.777
4.65 155.307 70.903
4.66 155.311 69.691
4.67 156.695 68.493
4.68 157.099 67.559
4.69 156.721 67.064
4.70 158.601 66.603
4.71 161.037 65.232
4.72 159.060 62.090
4.73 157.138 56.837
4.74 --undefined-- 50.006
4.75 --undefined-- 47.794
4.76 --undefined-- 51.933
4.77 --undefined-- 55.548
4.78 --undefined-- 57.527
4.79 --undefined-- 58.136
4.80 --undefined-- 58.776
4.81 --undefined-- 60.379
4.82 --undefined-- 62.139
4.83 --undefined-- 62.910
4.84 --undefined-- 62.209
4.85 --undefined-- 60.229
4.86 --undefined-- 58.077
4.87 --undefined-- 57.936
4.88 --undefined-- 62.339
4.89 --undefined-- 66.270
4.90 158.780 67.913
4.91 155.229 68.342
4.92 153.259 68.433
4.93 152.014 68.478
4.94 151.223 68.475
4.95 150.818 68.431
4.96 151.235 68.373
4.97 152.541 68.418
4.98 154.329 68.558
4.99 155.654 68.746
5.00 156.905 68.977
5.01 158.774 69.271
5.02 160.723 69.661
5.03 163.267 70.032
5.04 165.549 70.318
5.05 167.372 70.580
5.06 169.486 70.878
5.07 171.803 71.178
5.08 173.631 71.369
5.09 174.067 71.292
5.10 172.546 70.712
5.11 169.119 69.386
5.12 165.185 67.070
5.13 --undefined-- 63.586
5.14 --undefined-- 58.838
5.15 --undefined-- 53.643
5.16 --undefined-- 47.300
5.17 --undefined-- 40.952
5.18 --undefined-- 41.563
5.19 --undefined-- 42.513
5.20 --undefined-- 41.453
5.21 --undefined-- 44.351
5.22 --undefined-- 52.188
5.23 172.980 57.674
5.24 171.028 60.918
5.25 170.656 62.779
5.26 170.531 64.012
5.27 170.266 65.149
5.28 169.862 66.135
5.29 170.754 66.759
5.30 172.077 67.131
5.31 173.260 67.501
5.32 173.614 67.860
5.33 173.099 68.106
5.34 173.225 68.279
5.35 174.533 68.422
5.36 174.393 67.762
5.37 168.947 65.146
5.38 167.197 59.947
5.39 --undefined-- 51.752
5.40 --undefined-- 44.051
5.41 --undefined-- 42.104
5.42 --undefined-- 40.929
5.43 --undefined-- 47.491
5.44 --undefined-- 59.800
5.45 --undefined-- 67.811
5.46 199.811 71.921
5.47 190.012 73.312
5.48 186.085 73.194
5.49 184.367 72.356
5.50 183.654 71.606
5.51 182.968 71.669
5.52 182.583 72.282
5.53 181.631 72.923
5.54 177.558 72.654
5.55 --undefined-- 70.586
5.56 --undefined-- 66.296
5.57 --undefined-- 60.117
5.58 --undefined-- 52.585
5.59 --undefined-- 46.451
5.60 --undefined-- 42.812
5.61 --undefined-- 41.698
5.62 --undefined-- 42.086
5.63 --undefined-- 47.251
5.64 --undefined-- 57.505
5.65 194.215 64.516
5.66 180.899 68.253
5.67 171.047 69.868
5.68 166.999 70.315
5.69 164.279 69.989
5.70 164.019 69.242
5.71 158.717 68.467
5.72 153.834 67.942
5.73 150.032 67.570
5.74 147.013 67.210
5.75 145.371 66.800
5.76 143.634 66.252
5.77 143.278 65.708
5.78 142.744 65.278
5.79 142.625 65.103
5.80 141.243 65.166
5.81 141.543 65.124
5.82 140.059 64.979
5.83 138.391 64.971
5.84 138.548 65.172
5.85 139.075 65.530
5.86 140.579 66.018
5.87 140.818 66.570
5.88 140.767 66.836
5.89 142.350 66.858
5.90 142.653 66.816
5.91 143.837 66.653
5.92 143.623 66.523
5.93 144.326 66.373
5.94 145.760 66.138
5.95 144.851 65.450
5.96 142.103 64.092
5.97 151.346 62.562
5.98 170.103 60.521
5.99 157.896 56.317
6.00 --undefined-- 49.405
6.01 --undefined-- 42.944
6.02 --undefined-- 41.780
6.03 --undefined-- 41.755
6.04 --undefined-- 41.587
6.05 --undefined-- 42.312
6.06 --undefined-- 42.564
6.07 --undefined-- 42.169
6.08 --undefined-- 41.702
6.09 --undefined-- 41.382
6.10 --undefined-- 41.877
6.11 --undefined-- 42.716
6.12 --undefined-- 42.874
6.13 --undefined-- 42.111
6.14 --undefined-- 41.086
6.15 --undefined-- 41.648
6.16 --undefined-- 43.275
6.17 --undefined-- 43.929
6.18 --undefined-- 43.617
6.19 --undefined-- 42.201
6.20 --undefined-- --undefined--
6.21 --undefined-- --undefined--
6.22 --undefined-- --undefined--
6.23 --undefined-- --undefined--
