Time Pitch Intensity
0.01 --undefined-- --undefined--
0.02 152.862 --undefined--
0.03 152.924 --undefined--
0.04 152.567 --undefined--
0.05 151.044 72.109
0.06 149.732 71.709
0.07 148.679 70.980
0.08 148.136 70.238
0.09 147.194 69.877
0.10 145.801 69.555
0.11 144.951 68.614
0.12 144.518 66.119
0.13 135.220 61.119
0.14 133.131 53.649
0.15 --undefined-- 46.431
0.16 --undefined-- 42.497
0.17 --undefined-- 45.769
0.18 --undefined-- 54.016
0.19 --undefined-- 62.400
0.20 --undefined-- 68.305
0.21 132.342 71.351
0.22 131.175 72.350
0.23 123.220 72.135
0.24 121.596 71.784
0.25 119.298 71.864
0.26 117.169 71.867
0.27 115.049 71.693
0.28 114.328 71.688
0.29 112.511 71.878
0.30 111.253 72.095
0.31 109.434 72.076
0.32 108.275 71.702
0.33 108.211 70.988
0.34 108.703 70.053
0.35 109.193 69.330
0.36 109.544 69.185
0.37 110.815 69.425
0.38 112.650 69.654
0.39 112.738 69.574
0.40 110.956 69.207
0.41 110.479 68.811
0.42 110.529 68.471
0.43 111.481 68.105
0.44 110.596 67.749
0.45 109.659 67.378
0.46 109.568 67.124
0.47 109.329 67.064
0.48 108.795 67.054
0.49 108.365 67.140
0.50 108.863 67.447
0.51 109.152 67.893
0.52 109.102 68.332
0.53 109.127 68.683
0.54 109.399 68.874
0.55 109.552 68.832
0.56 109.626 68.681
0.57 109.419 68.575
0.58 109.006 68.360
0.59 108.666 67.904
0.60 108.751 67.341
0.61 109.610 66.630
0.62 109.902 65.483
0.63 110.081 63.306
0.64 --undefined-- 59.149
0.65 --undefined-- 52.675
0.66 --undefined-- 47.127
0.67 --undefined-- 43.554
0.68 --undefined-- 39.596
0.69 --undefined-- 37.550
0.70 --undefined-- 37.153
0.71 --undefined-- 37.127
0.72 --undefined-- 37.557
0.73 --undefined-- 37.929
0.74 --undefined-- 38.107
0.75 --undefined-- 38.360
0.76 --undefined-- 38.434
0.77 --undefined-- 38.526
0.78 --undefined-- 38.231
0.79 --undefined-- 37.788
0.80 --undefined-- 37.961
0.81 --undefined-- 38.294
0.82 --undefined-- 38.381
0.83 --undefined-- 38.934
0.84 --undefined-- 39.469
0.85 --undefined-- 38.838
0.86 --undefined-- 37.900
0.87 --undefined-- 37.868
0.88 --undefined-- 43.206
0.89 --undefined-- 54.158
0.90 --undefined-- 63.021
0.91 --undefined-- 69.414
0.92 --undefined-- 73.034
0.93 170.653 74.214
0.94 161.944 74.285
0.95 159.443 74.684
0.96 159.131 75.217
0.97 157.762 75.319
0.98 155.506 75.094
0.99 154.790 74.677
1.00 153.373 74.030
1.01 152.560 73.265
1.02 153.437 72.624
1.03 154.950 72.153
1.04 155.186 71.596
1.05 155.101 70.678
1.06 155.311 69.148
1.07 154.805 66.985
1.08 153.677 64.306
1.09 152.856 62.156
1.10 152.462 61.587
1.11 151.314 61.749
1.12 149.156 61.979
1.13 149.452 61.942
1.14 146.907 61.420
1.15 145.379 60.807
1.16 144.600 60.187
1.17 142.220 58.525
1.18 135.919 55.056
1.19 126.056 50.938
1.20 --undefined-- 57.832
1.21 --undefined-- 66.028
1.22 --undefined-- 70.601
1.23 --undefined-- 72.257
1.24 123.534 71.958
1.25 117.139 70.750
1.26 111.673 69.298
1.27 110.677 68.018
1.28 109.748 66.864
1.29 110.682 66.048
1.30 111.906 65.483
1.31 114.499 64.681
1.32 114.976 63.748
1.33 114.817 63.581
1.34 115.435 65.387
1.35 117.439 68.411
1.36 119.176 70.893
1.37 121.329 72.086
1.38 121.566 71.999
1.39 121.996 70.651
1.40 121.745 67.519
1.41 --undefined-- 61.844
1.42 --undefined-- 53.128
1.43 --undefined-- 43.675
1.44 --undefined-- 39.479
1.45 --undefined-- 43.066
1.46 --undefined-- 50.802
1.47 --undefined-- 56.402
1.48 --undefined-- 60.040
1.49 --undefined-- 65.006
1.50 --undefined-- 69.820
1.51 158.180 72.117
1.52 155.308 72.080
1.53 153.720 70.307
1.54 147.527 67.480
1.55 144.284 64.346
1.56 144.505 62.573
1.57 144.632 62.840
1.58 142.668 63.243
1.59 140.113 63.184
1.60 138.491 62.989
1.61 135.193 62.856
1.62 130.191 63.741
1.63 122.997 66.847
1.64 118.132 69.611
1.65 113.585 71.152
1.66 109.965 71.688
1.67 104.077 71.537
1.68 101.819 71.508
1.69 --undefined-- 71.397
1.70 --undefined-- 70.892
1.71 84.442 70.408
1.72 77.797 69.654
1.73 87.020 68.776
1.74 86.736 68.832
1.75 86.988 69.076
1.76 86.995 68.696
1.77 85.635 67.914
1.78 86.233 67.009
1.79 86.676 65.489
1.80 88.597 62.990
1.81 89.856 60.595
1.82 90.209 59.547
1.83 91.249 59.999
1.84 92.490 61.530
1.85 94.961 63.334
1.86 98.348 65.125
1.87 101.261 66.727
1.88 102.234 67.831
1.89 102.805 68.447
1.90 103.093 68.709
1.91 103.710 68.760
1.92 104.233 68.740
1.93 104.095 68.472
1.94 104.323 67.890
1.95 105.128 67.270
1.96 106.210 66.645
1.97 107.144 65.507
1.98 103.515 63.049
1.99 --undefined-- 58.882
2.00 --undefined-- 53.313
2.01 --undefined-- 47.245
2.02 --undefined-- 42.191
2.03 --undefined-- 40.369
2.04 --undefined-- 45.240
2.05 --undefined-- 52.020
2.06 --undefined-- 57.379
2.07 --undefined-- 59.721
2.08 --undefined-- 61.489
2.09 100.703 64.993
2.10 102.945 68.119
2.11 103.276 70.244
2.12 103.277 71.512
2.13 104.586 71.991
2.14 106.310 71.692
2.15 109.003 70.710
2.16 112.970 69.014
2.17 112.751 66.767
2.18 113.831 63.844
2.19 119.221 60.796
2.20 126.903 59.979
2.21 128.751 60.088
2.22 129.420 60.197
2.23 131.065 61.411
2.24 132.996 64.821
2.25 133.820 67.943
2.26 128.401 69.304
2.27 127.949 69.497
2.28 128.421 69.501
2.29 127.881 69.497
2.30 127.070 69.276
2.31 127.113 69.090
2.32 127.585 69.133
2.33 127.973 69.092
2.34 128.294 68.849
2.35 128.647 68.627
2.36 128.172 68.516
2.37 127.998 68.469
2.38 127.351 68.450
2.39 127.271 68.337
2.40 126.873 68.175
2.41 125.801 67.968
2.42 124.999 67.457
2.43 122.617 66.104
2.44 120.319 63.179
2.45 115.297 58.306
2.46 109.808 51.930
2.47 --undefined-- 46.248
2.48 --undefined-- 43.427
2.49 --undefined-- 42.531
2.50 --undefined-- 47.501
2.51 --undefined-- 53.515
2.52 --undefined-- 59.948
2.53 --undefined-- 65.723
2.54 --undefined-- 69.115
2.55 --undefined-- 70.434
2.56 --undefined-- 70.497
2.57 90.300 70.144
2.58 89.473 69.765
2.59 88.782 69.303
2.60 87.940 69.064
2.61 87.551 69.189
2.62 86.867 69.644
2.63 87.427 70.312
2.64 87.125 70.741
2.65 87.229 70.850
2.66 87.672 70.872
2.67 88.026 70.822
2.68 88.405 70.658
2.69 88.941 70.375
2.70 89.565 69.926
2.71 89.886 69.450
2.72 90.451 69.119
2.73 90.606 68.874
2.74 91.070 68.688
2.75 92.206 68.715
2.76 94.428 68.842
2.77 95.477 68.490
2.78 95.387 67.589
2.79 96.335 66.827
2.80 95.637 66.549
2.81 95.174 66.453
2.82 96.237 66.297
2.83 96.220 66.023
2.84 97.168 65.911
2.85 97.606 66.138
2.86 97.060 66.353
2.87 96.758 66.370
2.88 96.014 66.264
2.89 96.756 66.095
2.90 97.471 65.833
2.91 97.127 65.490
2.92 97.046 65.202
2.93 95.633 65.002
2.94 95.024 64.896
2.95 95.105 64.988
2.96 95.949 65.161
2.97 95.926 65.120
2.98 94.845 64.903
2.99 95.430 64.731
3.00 95.695 64.464
3.01 95.475 63.966
3.02 95.637 63.406
3.03 96.292 62.533
3.04 96.110 61.211
3.05 95.210 59.172
3.06 96.235 55.728
3.07 --undefined-- 50.679
3.08 --undefined-- 46.128
3.09 --undefined-- 44.532
3.10 --undefined-- 42.771
3.11 --undefined-- 40.393
3.12 --undefined-- 45.383
3.13 --undefined-- 52.220
3.14 --undefined-- 56.020
3.15 --undefined-- 57.733
3.16 --undefined-- 58.273
3.17 --undefined-- 58.451
3.18 --undefined-- 58.840
3.19 --undefined-- 61.646
3.20 --undefined-- 64.837
3.21 82.874 66.524
3.22 79.994 67.241
3.23 77.864 66.997
3.24 78.051 65.682
3.25 78.824 63.674
3.26 80.355 60.682
3.27 82.720 56.256
3.28 84.851 51.953
3.29 --undefined-- 50.499
3.30 --undefined-- 51.945
3.31 --undefined-- 54.368
3.32 --undefined-- 57.016
3.33 --undefined-- 62.247
3.34 --undefined-- 67.527
3.35 --undefined-- 70.307
3.36 --undefined-- 70.735
3.37 --undefined-- 69.660
3.38 87.203 68.094
3.39 84.387 66.683
3.40 88.015 65.267
3.41 --undefined-- 63.609
3.42 --undefined-- 62.173
3.43 --undefined-- 59.967
3.44 --undefined-- 56.953
3.45 --undefined-- 57.073
3.46 --undefined-- 57.954
3.47 --undefined-- 58.252
3.48 --undefined-- 58.136
3.49 --undefined-- 57.808
3.50 --undefined-- 57.593
3.51 --undefined-- 58.044
3.52 --undefined-- 59.287
3.53 86.926 60.783
3.54 86.403 63.242
3.55 93.947 65.809
3.56 93.196 67.194
3.57 93.061 67.753
3.58 98.627 68.159
3.59 99.842 68.346
3.60 98.992 68.217
3.61 99.895 67.982
3.62 101.089 67.459
3.63 102.635 66.984
3.64 103.602 66.712
3.65 106.181 65.964
3.66 106.337 64.733
3.67 109.626 63.793
3.68 111.438 63.527
3.69 114.680 63.592
3.70 116.339 63.561
3.71 117.512 63.192
3.72 118.720 62.456
3.73 119.524 61.523
3.74 119.988 60.493
3.75 120.384 59.096
3.76 120.715 57.494
3.77 120.321 55.838
3.78 120.053 53.213
3.79 --undefined-- 48.830
3.80 --undefined-- 42.931
3.81 --undefined-- 38.131
3.82 --undefined-- 35.899
3.83 --undefined-- 36.456
3.84 --undefined-- 43.712
3.85 --undefined-- 53.639
3.86 --undefined-- 60.352
3.87 --undefined-- 63.372
3.88 --undefined-- 65.186
3.89 --undefined-- 68.360
3.90 --undefined-- 70.312
3.91 --undefined-- 70.586
3.92 --undefined-- 69.863
3.93 88.362 68.762
3.94 88.571 68.190
3.95 91.042 68.047
3.96 93.936 67.737
3.97 97.824 67.306
3.98 102.478 67.183
3.99 107.242 67.045
4.00 111.050 66.645
4.01 114.053 66.547
4.02 116.715 67.238
4.03 119.971 68.450
4.04 121.899 69.403
4.05 123.069 69.816
4.06 121.968 69.811
4.07 120.590 69.691
4.08 116.397 70.144
4.09 109.977 71.273
4.10 109.789 71.965
4.11 107.720 71.792
4.12 103.551 70.949
4.13 98.546 70.394
4.14 96.861 70.354
4.15 95.419 70.088
4.16 95.030 69.280
4.17 95.529 67.687
4.18 95.156 65.268
4.19 96.763 62.656
4.20 99.628 60.811
4.21 102.614 59.989
4.22 102.445 58.794
4.23 101.491 57.276
4.24 101.902 56.585
4.25 101.358 57.552
4.26 96.577 61.281
4.27 --undefined-- 65.680
4.28 --undefined-- 68.753
4.29 --undefined-- 69.887
4.30 --undefined-- 68.986
4.31 --undefined-- 66.157
4.32 --undefined-- 62.481
4.33 --undefined-- 59.814
4.34 --undefined-- 58.285
4.35 --undefined-- 57.122
4.36 --undefined-- 57.812
4.37 --undefined-- 61.738
4.38 --undefined-- 66.323
4.39 --undefined-- 68.923
4.40 105.137 69.498
4.41 97.046 69.294
4.42 97.868 68.836
4.43 97.999 67.665
4.44 --undefined-- 65.516
4.45 --undefined-- 63.461
4.46 --undefined-- 60.976
4.47 --undefined-- 56.369
4.48 --undefined-- 50.202
4.49 --undefined-- 44.609
4.50 --undefined-- 39.864
4.51 --undefined-- 37.088
4.52 --undefined-- 35.605
4.53 --undefined-- 35.542
4.54 --undefined-- 44.006
4.55 --undefined-- 54.444
4.56 --undefined-- 60.753
4.57 --undefined-- 63.227
4.58 --undefined-- 64.678
4.59 --undefined-- 67.463
4.60 --undefined-- 69.112
4.61 84.480 68.968
4.62 85.786 67.995
4.63 85.006 67.275
4.64 93.362 67.309
4.65 93.722 67.332
4.66 96.712 66.483
4.67 99.695 64.633
4.68 104.905 62.588
4.69 107.269 60.989
4.70 110.960 59.616
4.71 113.508 58.388
4.72 117.358 56.836
4.73 120.158 54.445
4.74 121.975 51.741
4.75 123.422 50.444
4.76 117.702 51.183
4.77 112.838 53.310
4.78 111.623 56.272
4.79 108.727 59.153
4.80 104.136 61.330
4.81 99.025 62.826
4.82 94.310 63.723
4.83 91.387 63.642
4.84 --undefined-- 61.921
4.85 --undefined-- 58.105
4.86 --undefined-- 53.688
4.87 --undefined-- 53.227
4.88 --undefined-- 54.348
4.89 --undefined-- 54.775
4.90 --undefined-- 56.383
4.91 --undefined-- 57.925
4.92 --undefined-- 59.875
4.93 --undefined-- 61.993
4.94 --undefined-- 64.269
4.95 --undefined-- 66.940
4.96 --undefined-- 68.982
4.97 --undefined-- 69.917
4.98 --undefined-- 69.474
4.99 --undefined-- 67.271
5.00 --undefined-- 63.084
5.01 --undefined-- 56.898
5.02 --undefined-- 48.658
5.03 --undefined-- 40.292
5.04 --undefined-- 39.853
5.05 --undefined-- 46.454
5.06 --undefined-- 51.072
5.07 --undefined-- 51.831
5.08 --undefined-- 50.286
5.09 --undefined-- 49.106
5.10 --undefined-- 49.168
5.11 --undefined-- 50.753
5.12 --undefined-- 52.477
5.13 --undefined-- 53.294
5.14 --undefined-- 55.018
5.15 105.451 59.889
5.16 103.212 64.561
5.17 99.219 67.300
5.18 97.411 68.463
5.19 95.586 68.444
5.20 94.407 67.727
5.21 94.985 66.856
5.22 95.713 65.904
5.23 95.988 64.925
5.24 96.440 64.324
5.25 96.150 64.028
5.26 96.016 63.660
5.27 96.203 63.378
5.28 97.439 63.627
5.29 99.644 64.464
5.30 101.974 65.604
5.31 104.078 66.679
5.32 105.422 67.310
5.33 107.117 67.981
5.34 108.677 69.455
5.35 108.788 70.896
5.36 109.880 --undefined--
5.37 110.763 --undefined--
5.38 --undefined-- --undefined--
5.39 --undefined-- --undefined--
