Time Pitch Intensity
0.01 --undefined-- --undefined--
0.02 149.574 --undefined--
0.03 168.243 --undefined--
0.04 177.785 --undefined--
0.05 178.981 64.381
0.06 173.723 63.887
0.07 168.353 62.170
0.08 162.726 59.114
0.09 --undefined-- 55.609
0.10 --undefined-- 55.333
0.11 --undefined-- 56.023
0.12 --undefined-- 54.918
0.13 --undefined-- 54.891
0.14 --undefined-- 57.478
0.15 --undefined-- 58.178
0.16 --undefined-- 56.990
0.17 --undefined-- 57.396
0.18 228.472 61.280
0.19 214.535 64.609
0.20 211.534 66.293
0.21 212.842 66.727
0.22 216.480 66.614
0.23 219.596 66.507
0.24 220.205 66.588
0.25 220.374 66.631
0.26 220.212 66.450
0.27 219.604 66.051
0.28 218.569 65.560
0.29 216.789 65.079
0.30 213.945 64.661
0.31 211.375 64.381
0.32 208.422 64.045
0.33 203.775 63.625
0.34 195.512 64.007
0.35 187.102 65.500
0.36 178.047 66.897
0.37 172.308 67.260
0.38 165.298 66.556
0.39 159.237 66.001
0.40 158.707 66.281
0.41 158.998 66.656
0.42 160.140 66.543
0.43 162.241 65.998
0.44 164.382 65.423
0.45 166.585 65.228
0.46 167.284 65.231
0.47 167.634 64.717
0.48 167.028 62.931
0.49 159.467 59.308
0.50 --undefined-- 54.816
0.51 --undefined-- 53.232
0.52 --undefined-- 53.294
0.53 --undefined-- 56.898
0.54 198.415 62.655
0.55 196.094 66.620
0.56 185.321 68.919
0.57 180.111 70.020
0.58 178.805 70.379
0.59 177.712 70.623
0.60 177.862 70.991
0.61 179.255 71.399
0.62 180.912 71.796
0.63 182.105 72.175
0.64 182.450 72.644
0.65 181.793 73.140
0.66 179.955 73.634
0.67 178.543 74.384
0.68 177.439 74.973
0.69 176.707 74.733
0.70 176.041 73.625
0.71 175.510 72.088
0.72 --undefined-- 69.765
0.73 --undefined-- 65.725
0.74 --undefined-- 60.729
0.75 --undefined-- 56.497
0.76 --undefined-- 52.730
0.77 --undefined-- 51.055
0.78 --undefined-- 52.079
0.79 --undefined-- 52.861
0.80 --undefined-- 51.583
0.81 --undefined-- 49.119
0.82 --undefined-- 47.389
0.83 --undefined-- 45.152
0.84 --undefined-- 42.557
0.85 --undefined-- 43.062
0.86 --undefined-- 43.599
0.87 --undefined-- 42.213
0.88 --undefined-- 43.273
0.89 --undefined-- 45.760
0.90 --undefined-- 47.293
0.91 --undefined-- 48.314
0.92 --undefined-- 49.145
0.93 --undefined-- 48.663
0.94 --undefined-- 45.650
0.95 --undefined-- 43.917
0.96 --undefined-- 44.967
0.97 --undefined-- 46.379
0.98 --undefined-- 49.682
0.99 --undefined-- 51.934
1.00 --undefined-- 51.945
1.01 --undefined-- 50.458
1.02 --undefined-- 49.135
1.03 --undefined-- 47.652
1.04 --undefined-- 48.472
1.05 --undefined-- 50.301
1.06 --undefined-- 51.109
1.07 --undefined-- 51.647
1.08 --undefined-- 52.596
1.09 --undefined-- 53.538
1.10 --undefined-- 53.424
1.11 --undefined-- 52.150
1.12 --undefined-- 50.443
1.13 --undefined-- 50.628
1.14 --undefined-- 52.251
1.15 --undefined-- 52.718
1.16 --undefined-- 51.615
1.17 --undefined-- 51.261
1.18 --undefined-- 51.591
1.19 --undefined-- 51.925
1.20 --undefined-- 52.343
1.21 --undefined-- 52.082
1.22 --undefined-- 51.736
1.23 --undefined-- 51.691
1.24 --undefined-- 50.798
1.25 --undefined-- 49.379
1.26 --undefined-- 50.398
1.27 --undefined-- 51.477
1.28 --undefined-- 50.312
1.29 --undefined-- 48.049
1.30 --undefined-- 49.888
1.31 --undefined-- 52.527
1.32 --undefined-- 53.377
1.33 --undefined-- 56.225
1.34 292.167 61.647
1.35 269.893 65.700
1.36 272.886 68.391
1.37 277.755 70.245
1.38 284.047 71.554
1.39 291.288 72.500
1.40 292.984 72.264
1.41 291.852 69.789
1.42 284.765 64.649
1.43 287.911 57.999
1.44 291.955 53.314
1.45 --undefined-- 49.653
1.46 --undefined-- 50.313
1.47 --undefined-- 58.025
1.48 271.719 65.039
1.49 249.954 70.388
1.50 240.820 74.269
1.51 236.051 76.188
1.52 230.932 76.476
1.53 233.464 76.534
1.54 239.372 76.960
1.55 248.806 76.814
1.56 260.043 75.836
1.57 269.475 74.264
1.58 282.285 72.478
1.59 --undefined-- 71.235
1.60 172.425 70.523
1.61 185.791 69.930
1.62 194.904 68.914
1.63 214.237 67.191
1.64 222.441 65.711
1.65 223.255 64.213
1.66 219.767 61.330
1.67 202.288 57.374
1.68 --undefined-- 54.538
1.69 --undefined-- 53.015
1.70 --undefined-- 52.765
1.71 --undefined-- 59.028
1.72 --undefined-- 65.921
1.73 --undefined-- 70.220
1.74 --undefined-- 72.316
1.75 --undefined-- 73.025
1.76 --undefined-- 73.263
1.77 --undefined-- 73.166
1.78 293.260 72.770
1.79 284.975 72.374
1.80 279.585 71.826
1.81 275.214 70.991
1.82 272.814 70.054
1.83 270.192 69.052
1.84 268.811 68.102
1.85 268.928 67.459
1.86 270.643 67.103
1.87 270.120 66.723
1.88 263.558 66.521
1.89 263.601 67.009
1.90 261.989 67.154
1.91 255.140 66.020
1.92 246.242 63.660
1.93 239.771 60.094
1.94 --undefined-- 55.240
1.95 --undefined-- 56.451
1.96 249.951 63.459
1.97 245.059 67.383
1.98 234.908 68.623
1.99 229.142 68.665
2.00 227.010 68.656
2.01 226.666 68.894
2.02 227.119 69.456
2.03 228.148 70.258
2.04 228.699 71.129
2.05 229.301 71.827
2.06 231.203 72.063
2.07 234.643 71.494
2.08 238.639 70.244
2.09 238.206 69.001
2.10 238.356 68.203
2.11 239.638 67.522
2.12 241.299 66.543
2.13 241.757 65.165
2.14 240.758 63.065
2.15 225.759 59.572
2.16 225.005 54.310
2.17 --undefined-- 48.128
2.18 --undefined-- 43.942
2.19 --undefined-- 44.945
2.20 --undefined-- 47.836
2.21 --undefined-- 50.222
2.22 --undefined-- 51.887
2.23 --undefined-- 53.770
2.24 279.049 57.692
2.25 281.192 62.471
2.26 291.850 65.980
2.27 152.184 68.236
2.28 157.271 69.713
2.29 159.961 70.785
2.30 162.295 71.634
2.31 166.252 72.392
2.32 168.773 72.772
2.33 170.735 72.340
2.34 171.857 71.316
2.35 172.253 70.333
2.36 172.324 69.640
2.37 172.215 69.084
2.38 171.698 68.640
2.39 170.430 68.344
2.40 169.551 68.448
2.41 169.051 68.930
2.42 169.106 69.335
2.43 168.998 69.355
2.44 167.646 68.831
2.45 159.091 67.131
2.46 154.179 63.392
2.47 167.820 57.683
2.48 168.900 55.086
2.49 181.314 59.786
2.50 174.742 64.777
2.51 168.664 67.426
2.52 166.774 68.147
2.53 166.545 68.171
2.54 166.122 68.139
2.55 165.289 68.186
2.56 164.452 68.289
2.57 163.964 68.289
2.58 163.756 68.215
2.59 163.490 68.127
2.60 163.374 68.042
2.61 163.412 68.009
2.62 163.497 68.050
2.63 163.628 68.140
2.64 163.659 68.229
2.65 164.002 68.246
2.66 163.940 68.075
2.67 162.482 67.245
2.68 158.847 64.852
2.69 154.887 60.332
2.70 --undefined-- 56.682
2.71 --undefined-- 58.308
2.72 --undefined-- 59.315
2.73 --undefined-- 59.861
2.74 164.957 63.347
2.75 167.015 66.528
2.76 166.715 68.040
2.77 166.618 68.443
2.78 166.351 68.214
2.79 157.026 67.490
2.80 --undefined-- 65.942
2.81 --undefined-- 63.462
2.82 --undefined-- 60.309
2.83 --undefined-- 56.528
2.84 --undefined-- 54.142
2.85 --undefined-- 54.544
2.86 --undefined-- 56.529
2.87 --undefined-- 58.816
2.88 208.946 61.093
2.89 203.517 63.291
2.90 199.770 65.118
2.91 199.492 66.381
2.92 189.902 66.874
2.93 187.537 66.730
2.94 182.607 66.397
2.95 184.362 65.934
2.96 185.661 65.459
2.97 186.624 65.261
2.98 186.783 65.182
2.99 186.761 65.056
3.00 186.806 64.896
3.01 187.133 64.766
3.02 187.443 64.661
3.03 188.331 64.541
3.04 189.092 64.377
3.05 189.481 64.152
3.06 189.928 63.962
3.07 190.225 63.766
3.08 190.981 63.438
3.09 190.523 62.672
3.10 189.549 60.705
3.11 191.496 57.000
3.12 --undefined-- 52.958
3.13 --undefined-- 51.863
3.14 --undefined-- 53.205
3.15 --undefined-- 53.845
3.16 --undefined-- 51.488
3.17 --undefined-- 47.803
3.18 --undefined-- 50.714
3.19 277.061 55.692
3.20 270.046 58.047
3.21 183.292 57.938
3.22 185.526 58.524
3.23 193.981 62.151
3.24 --undefined-- 66.053
3.25 --undefined-- 68.011
3.26 --undefined-- 68.373
3.27 --undefined-- 68.576
3.28 --undefined-- 68.653
3.29 --undefined-- 67.468
3.30 --undefined-- 64.711
3.31 79.115 61.922
3.32 78.290 60.751
3.33 77.094 60.321
3.34 75.142 60.054
3.35 154.189 60.067
3.36 152.941 60.102
3.37 153.493 59.690
3.38 153.158 58.764
3.39 151.161 57.624
3.40 149.676 56.446
3.41 146.689 54.666
3.42 146.666 52.120
3.43 --undefined-- 50.307
3.44 --undefined-- 49.249
3.45 --undefined-- 47.244
3.46 --undefined-- 45.979
3.47 --undefined-- 48.804
3.48 --undefined-- 53.796
3.49 265.517 60.257
3.50 257.514 65.084
3.51 254.929 67.703
3.52 254.603 68.813
3.53 255.014 69.046
3.54 256.313 68.714
3.55 258.148 67.968
3.56 260.367 67.105
3.57 263.834 66.390
3.58 267.614 65.920
3.59 269.419 65.653
3.60 270.710 65.343
3.61 271.782 64.896
3.62 272.113 64.577
3.63 273.508 64.477
3.64 272.341 64.069
3.65 263.771 62.819
3.66 253.166 60.749
3.67 244.917 57.746
3.68 240.019 53.913
3.69 --undefined-- 50.919
3.70 --undefined-- 48.792
3.71 --undefined-- 46.889
3.72 --undefined-- 46.456
3.73 --undefined-- 52.986
3.74 --undefined-- 61.198
3.75 170.659 66.399
3.76 171.652 68.910
3.77 168.667 69.476
3.78 167.454 68.937
3.79 168.293 68.086
3.80 170.193 67.308
3.81 173.164 67.123
3.82 173.055 67.590
3.83 172.304 67.933
3.84 171.003 67.634
3.85 169.001 66.616
3.86 167.353 65.191
3.87 166.298 64.098
3.88 166.607 63.668
3.89 166.855 63.462
3.90 167.498 63.165
3.91 168.912 62.764
3.92 170.444 62.292
3.93 172.600 61.795
3.94 173.990 61.341
3.95 175.638 61.116
3.96 178.253 61.243
3.97 180.695 61.358
3.98 179.702 60.902
3.99 175.023 59.639
4.00 167.246 57.891
4.01 162.388 56.512
4.02 161.369 56.675
4.03 167.625 58.560
4.04 172.120 61.076
4.05 174.274 63.849
4.06 174.136 66.110
4.07 171.802 66.994
4.08 170.176 66.595
4.09 171.894 66.047
4.10 174.225 66.185
4.11 177.858 66.885
4.12 180.976 67.860
4.13 183.601 68.712
4.14 189.560 69.455
4.15 193.550 69.992
4.16 197.784 69.962
4.17 201.433 69.440
4.18 203.345 68.896
4.19 203.354 68.173
4.20 200.391 67.076
4.21 --undefined-- 66.589
4.22 --undefined-- 66.318
4.23 --undefined-- 65.428
4.24 262.437 63.755
4.25 261.000 60.398
4.26 --undefined-- 55.166
4.27 --undefined-- 49.335
4.28 --undefined-- 44.632
4.29 --undefined-- 42.350
4.30 --undefined-- 43.903
4.31 --undefined-- 46.879
4.32 --undefined-- 50.562
4.33 --undefined-- 53.954
4.34 --undefined-- 56.969
4.35 100.981 59.563
4.36 104.902 61.220
4.37 213.559 62.434
4.38 215.829 63.421
4.39 217.253 64.219
4.40 219.702 64.772
4.41 221.417 65.014
4.42 224.603 65.092
4.43 227.115 64.897
4.44 226.185 63.690
4.45 221.167 60.756
4.46 212.337 55.902
4.47 --undefined-- 50.831
4.48 --undefined-- 49.675
4.49 --undefined-- 55.119
4.50 --undefined-- 62.576
4.51 256.925 67.243
4.52 254.722 69.696
4.53 251.136 70.981
4.54 247.171 71.523
4.55 243.525 71.588
4.56 242.434 71.575
4.57 243.512 71.420
4.58 245.560 70.969
4.59 247.254 70.318
4.60 248.676 69.407
4.61 250.590 68.392
4.62 252.150 67.647
4.63 253.743 67.144
4.64 255.336 66.565
4.65 254.056 65.757
4.66 251.198 64.479
4.67 246.052 62.225
4.68 239.575 58.202
4.69 --undefined-- 52.671
4.70 --undefined-- 51.629
4.71 --undefined-- 55.775
4.72 --undefined-- 60.707
4.73 --undefined-- 64.571
4.74 200.933 66.646
4.75 192.279 67.601
4.76 186.921 67.529
4.77 182.606 66.205
4.78 178.514 63.865
4.79 175.778 60.278
4.80 --undefined-- 55.307
4.81 --undefined-- 53.155
4.82 --undefined-- 55.505
4.83 --undefined-- 56.840
4.84 --undefined-- 55.801
4.85 --undefined-- 51.766
4.86 --undefined-- 46.715
4.87 --undefined-- 47.816
4.88 --undefined-- 52.558
4.89 --undefined-- 55.685
4.90 --undefined-- 56.685
4.91 --undefined-- 56.043
4.92 --undefined-- 55.017
4.93 --undefined-- 55.296
4.94 --undefined-- 55.281
4.95 --undefined-- 53.587
4.96 --undefined-- 51.029
4.97 --undefined-- 49.639
4.98 --undefined-- 48.344
4.99 --undefined-- 49.372
5.00 --undefined-- 52.098
5.01 --undefined-- 52.852
5.02 --undefined-- 52.026
5.03 --undefined-- 54.045
5.04 --undefined-- 60.655
5.05 268.826 65.231
5.06 263.341 67.534
5.07 258.774 68.662
5.08 255.401 69.378
5.09 252.740 69.922
5.10 251.436 --undefined--
5.11 251.871 --undefined--
5.12 --undefined-- --undefined--
5.13 --undefined-- --undefined--
