Time Pitch Intensity
0.01 --undefined-- --undefined--
0.02 --undefined-- --undefined--
0.03 --undefined-- --undefined--
0.04 --undefined-- --undefined--
0.05 --undefined-- 68.275
0.06 124.425 72.479
0.07 125.307 75.551
0.08 126.815 77.530
0.09 129.080 78.318
0.10 132.854 78.598
0.11 138.567 79.215
0.12 143.276 79.627
0.13 151.659 78.993
0.14 159.379 77.825
0.15 164.261 76.835
0.16 171.026 75.578
0.17 92.013 74.016
0.18 94.370 73.094
0.19 94.382 73.026
0.20 93.101 73.577
0.21 90.654 74.881
0.22 172.127 76.713
0.23 165.709 78.093
0.24 157.630 78.667
0.25 149.187 78.286
0.26 138.928 76.945
0.27 128.920 75.428
0.28 124.096 74.557
0.29 120.997 74.259
0.30 117.826 74.098
0.31 115.313 73.736
0.32 112.739 72.955
0.33 110.051 71.988
0.34 108.450 71.410
0.35 107.983 71.316
0.36 108.525 71.167
0.37 110.063 70.559
0.38 109.251 69.485
0.39 108.846 68.467
0.40 109.364 68.404
0.41 112.668 69.523
0.42 115.837 70.912
0.43 116.665 71.856
0.44 116.386 72.174
0.45 115.336 71.782
0.46 114.394 70.324
0.47 108.471 67.100
0.48 94.816 61.711
0.49 --undefined-- 54.890
0.50 --undefined-- 49.532
0.51 --undefined-- 55.754
0.52 --undefined-- 64.923
0.53 --undefined-- 70.354
0.54 125.193 72.822
0.55 116.699 73.605
0.56 112.158 73.637
0.57 108.742 73.155
0.58 107.857 72.590
0.59 109.113 72.361
0.60 110.223 72.557
0.61 112.127 73.137
0.62 113.825 73.855
0.63 114.449 74.281
0.64 114.674 74.191
0.65 114.780 73.552
0.66 115.636 72.416
0.67 115.911 71.062
0.68 113.673 70.244
0.69 121.523 70.696
0.70 127.507 71.079
0.71 127.738 69.852
0.72 121.084 67.457
0.73 160.453 69.074
0.74 150.838 72.939
0.75 146.854 75.214
0.76 144.250 75.713
0.77 140.174 74.221
0.78 130.546 70.412
0.79 114.168 64.131
0.80 --undefined-- 55.953
0.81 --undefined-- 50.259
0.82 --undefined-- 52.055
0.83 --undefined-- 54.421
0.84 --undefined-- 56.053
0.85 --undefined-- 56.314
0.86 --undefined-- 55.640
0.87 --undefined-- 61.640
0.88 173.618 68.816
0.89 170.675 73.105
0.90 149.266 74.789
0.91 141.124 74.273
0.92 --undefined-- 72.224
0.93 --undefined-- 70.082
0.94 --undefined-- 67.810
0.95 117.904 66.202
0.96 117.806 67.265
0.97 115.439 68.874
0.98 121.144 69.708
0.99 106.424 69.962
1.00 106.270 69.475
1.01 104.710 68.636
1.02 102.396 67.790
1.03 98.673 66.852
1.04 96.389 65.746
1.05 94.601 64.282
1.06 91.986 61.886
1.07 91.356 58.942
1.08 85.144 58.654
1.09 --undefined-- 62.329
1.10 105.190 65.994
1.11 109.425 68.371
1.12 110.302 69.597
1.13 109.636 70.000
1.14 108.809 69.800
1.15 109.240 69.505
1.16 111.764 69.828
1.17 115.033 70.552
1.18 114.371 71.322
1.19 113.685 71.801
1.20 113.385 71.850
1.21 113.977 72.015
1.22 115.635 72.483
1.23 116.012 72.472
1.24 116.022 71.586
1.25 116.512 70.264
1.26 --undefined-- 68.201
1.27 --undefined-- 65.145
1.28 --undefined-- 60.494
1.29 --undefined-- 52.751
1.30 --undefined-- 43.378
1.31 --undefined-- 39.469
1.32 --undefined-- 38.181
1.33 --undefined-- 36.312
1.34 --undefined-- 35.989
1.35 --undefined-- 37.397
1.36 --undefined-- 39.015
1.37 --undefined-- 39.478
1.38 --undefined-- 39.136
1.39 --undefined-- 39.053
1.40 --undefined-- 38.384
1.41 --undefined-- 38.107
1.42 --undefined-- 38.860
1.43 --undefined-- 38.500
1.44 --undefined-- 37.146
1.45 --undefined-- 36.340
1.46 --undefined-- 35.053
1.47 --undefined-- 34.708
1.48 --undefined-- 36.256
1.49 --undefined-- 37.529
1.50 --undefined-- 38.243
1.51 --undefined-- 38.346
1.52 --undefined-- 37.351
1.53 --undefined-- 36.567
1.54 --undefined-- 37.204
1.55 --undefined-- 37.252
1.56 --undefined-- 37.025
1.57 --undefined-- 37.054
1.58 --undefined-- 36.798
1.59 --undefined-- 36.510
1.60 --undefined-- 37.033
1.61 --undefined-- 38.022
1.62 --undefined-- 38.296
1.63 --undefined-- 37.228
1.64 --undefined-- 35.220
1.65 --undefined-- 34.449
1.66 --undefined-- 34.727
1.67 --undefined-- 36.071
1.68 --undefined-- 36.663
1.69 --undefined-- 35.785
1.70 --undefined-- 35.790
1.71 --undefined-- 36.657
1.72 --undefined-- 37.397
1.73 --undefined-- 37.710
1.74 --undefined-- 36.761
1.75 --undefined-- 35.808
1.76 --undefined-- 37.577
1.77 --undefined-- 38.890
1.78 --undefined-- 38.677
1.79 --undefined-- 38.348
1.80 --undefined-- 39.655
1.81 --undefined-- 42.118
1.82 --undefined-- 42.202
1.83 --undefined-- 39.491
1.84 --undefined-- 37.825
1.85 --undefined-- 38.285
1.86 --undefined-- 42.821
1.87 --undefined-- 52.430
1.88 --undefined-- 61.222
1.89 --undefined-- 68.938
1.90 202.957 74.298
1.91 191.471 76.939
1.92 186.533 77.708
1.93 184.802 77.680
1.94 185.141 77.363
1.95 185.934 77.169
1.96 186.358 77.487
1.97 184.542 78.180
1.98 180.255 78.646
1.99 178.235 78.128
2.00 181.607 76.203
2.01 187.944 73.438
2.02 185.311 71.319
2.03 177.210 69.453
2.04 164.962 66.641
2.05 155.661 62.416
2.06 --undefined-- 56.897
2.07 --undefined-- 51.604
2.08 --undefined-- 48.726
2.09 --undefined-- 47.681
2.10 --undefined-- 47.204
2.11 --undefined-- 46.674
2.12 --undefined-- 46.395
2.13 --undefined-- 46.573
2.14 --undefined-- 47.722
2.15 --undefined-- 48.472
2.16 --undefined-- 48.387
2.17 --undefined-- 49.330
2.18 --undefined-- 55.091
2.19 247.272 60.652
2.20 213.876 63.989
2.21 196.163 66.101
2.22 198.456 68.079
2.23 202.910 69.871
2.24 205.047 71.275
2.25 204.815 72.592
2.26 203.319 74.560
2.27 202.068 77.482
2.28 203.770 79.987
2.29 205.347 80.799
2.30 204.112 79.705
2.31 203.332 77.752
2.32 204.362 76.639
2.33 205.606 76.368
2.34 207.003 76.319
2.35 207.161 76.178
2.36 206.470 75.837
2.37 203.820 75.127
2.38 197.813 73.420
2.39 187.466 69.992
2.40 171.488 64.680
2.41 --undefined-- 58.221
2.42 --undefined-- 53.057
2.43 --undefined-- 51.481
2.44 --undefined-- 51.133
2.45 --undefined-- 52.129
2.46 --undefined-- 59.221
2.47 --undefined-- 67.327
2.48 --undefined-- 72.258
2.49 189.427 74.500
2.50 184.031 75.240
2.51 180.347 75.861
2.52 178.157 76.705
2.53 177.758 77.471
2.54 177.712 78.136
2.55 178.095 78.611
2.56 178.371 78.786
2.57 178.007 78.689
2.58 177.050 78.348
2.59 176.380 77.724
2.60 176.945 76.893
2.61 177.857 76.046
2.62 177.171 75.131
2.63 176.484 73.871
2.64 175.199 72.086
2.65 --undefined-- 69.881
2.66 --undefined-- 68.446
2.67 --undefined-- 68.355
2.68 --undefined-- 68.621
2.69 --undefined-- 69.997
2.70 84.930 71.787
2.71 84.766 73.747
2.72 172.866 75.660
2.73 173.882 76.903
2.74 172.387 77.677
2.75 169.948 78.405
2.76 168.303 78.989
2.77 168.002 79.049
2.78 167.694 78.448
2.79 167.628 77.232
2.80 167.036 75.261
2.81 163.283 72.288
2.82 83.598 69.113
2.83 83.631 66.823
2.84 83.846 65.208
2.85 134.961 66.421
2.86 131.843 69.480
2.87 133.448 72.032
2.88 89.603 73.932
2.89 89.745 75.228
2.90 179.747 75.622
2.91 177.410 75.829
2.92 173.840 76.483
2.93 171.503 77.005
2.94 170.347 77.026
2.95 170.046 76.520
2.96 169.946 75.402
2.97 170.508 73.399
2.98 170.461 70.076
2.99 163.986 65.286
3.00 156.599 60.375
3.01 162.428 56.673
3.02 --undefined-- 52.428
3.03 --undefined-- 50.774
3.04 --undefined-- 56.197
3.05 --undefined-- 58.634
3.06 --undefined-- 58.616
3.07 --undefined-- 62.312
3.08 --undefined-- 66.931
3.09 128.108 69.560
3.10 124.564 70.808
3.11 124.322 71.399
3.12 125.848 71.648
3.13 130.733 71.650
3.14 136.397 71.238
3.15 138.260 69.784
3.16 134.996 66.574
3.17 122.560 61.652
3.18 129.556 56.583
3.19 --undefined-- 53.964
3.20 --undefined-- 58.640
3.21 --undefined-- 65.021
3.22 --undefined-- 69.927
3.23 --undefined-- 72.727
3.24 133.219 73.642
3.25 126.678 73.449
3.26 124.590 73.092
3.27 123.853 72.877
3.28 123.032 72.698
3.29 121.220 72.680
3.30 119.444 72.783
3.31 117.238 72.903
3.32 117.134 72.948
3.33 116.671 72.655
3.34 116.561 71.767
3.35 121.010 70.781
3.36 119.129 70.152
3.37 123.530 69.312
3.38 122.198 67.907
3.39 121.819 66.124
3.40 --undefined-- 63.582
3.41 --undefined-- 59.696
3.42 --undefined-- 55.966
3.43 --undefined-- 52.353
3.44 --undefined-- 48.286
3.45 --undefined-- 46.891
3.46 --undefined-- 45.126
3.47 --undefined-- 41.554
3.48 --undefined-- 38.644
3.49 --undefined-- 38.906
3.50 --undefined-- 39.646
3.51 --undefined-- 39.977
3.52 --undefined-- 40.945
3.53 --undefined-- 40.732
3.54 --undefined-- 38.970
3.55 --undefined-- 38.454
3.56 --undefined-- 38.774
3.57 --undefined-- 37.736
3.58 --undefined-- 36.602
3.59 --undefined-- 37.048
3.60 --undefined-- 37.816
3.61 --undefined-- 38.494
3.62 --undefined-- 37.713
3.63 --undefined-- 37.198
3.64 --undefined-- 40.540
3.65 --undefined-- 50.722
3.66 --undefined-- 61.404
3.67 --undefined-- 68.746
3.68 169.498 72.968
3.69 167.064 75.171
3.70 165.017 76.444
3.71 164.874 77.293
3.72 164.898 77.532
3.73 164.943 76.706
3.74 164.547 75.047
3.75 162.642 74.214
3.76 162.546 74.476
3.77 158.428 74.807
3.78 154.798 75.135
3.79 152.349 75.343
3.80 137.916 75.355
3.81 134.678 75.248
3.82 132.282 74.881
3.83 126.500 74.152
3.84 122.959 73.126
3.85 119.240 72.208
3.86 114.743 71.818
3.87 112.185 71.565
3.88 109.707 70.895
3.89 106.525 69.905
3.90 106.887 69.297
3.91 108.848 68.749
3.92 98.464 67.515
3.93 94.121 66.865
3.94 106.244 68.040
3.95 112.056 69.173
3.96 114.747 69.619
3.97 116.129 69.987
3.98 115.596 70.382
3.99 119.288 70.686
4.00 116.725 70.510
4.01 128.285 69.742
4.02 139.263 69.036
4.03 137.441 68.415
4.04 137.627 67.060
4.05 136.997 64.004
4.06 --undefined-- 58.749
4.07 --undefined-- 53.050
4.08 --undefined-- 48.349
4.09 --undefined-- 44.674
4.10 --undefined-- 51.366
4.11 --undefined-- 59.162
4.12 --undefined-- 64.073
4.13 --undefined-- 68.569
4.14 --undefined-- 73.792
4.15 161.337 77.403
4.16 154.906 79.228
4.17 150.010 80.238
4.18 147.912 81.136
4.19 147.254 81.801
4.20 147.049 82.152
4.21 147.479 82.351
4.22 147.985 82.472
4.23 147.414 82.289
4.24 146.452 81.517
4.25 145.089 80.078
4.26 144.611 78.733
4.27 144.447 78.287
4.28 146.242 77.736
4.29 146.820 76.238
4.30 141.016 73.396
4.31 135.953 68.628
4.32 125.707 62.812
4.33 --undefined-- 57.361
4.34 --undefined-- 53.228
4.35 --undefined-- 53.127
4.36 --undefined-- 56.229
4.37 --undefined-- 58.860
4.38 --undefined-- 60.191
4.39 --undefined-- 60.741
4.40 --undefined-- 60.289
4.41 --undefined-- 59.507
4.42 --undefined-- 59.311
4.43 --undefined-- 59.166
4.44 --undefined-- 60.058
4.45 --undefined-- 64.717
4.46 --undefined-- 68.645
4.47 121.090 70.607
4.48 119.810 71.440
4.49 118.767 71.882
4.50 119.007 72.242
4.51 119.166 72.575
4.52 119.671 72.858
4.53 120.688 73.093
4.54 122.042 73.221
4.55 123.965 73.147
4.56 125.595 72.872
4.57 127.037 72.417
4.58 125.796 71.748
4.59 124.939 70.967
4.60 124.147 70.335
4.61 --undefined-- 69.881
4.62 --undefined-- 69.134
4.63 --undefined-- 67.394
4.64 --undefined-- 63.904
4.65 --undefined-- 59.302
4.66 --undefined-- 54.485
4.67 --undefined-- 48.747
4.68 --undefined-- 43.570
4.69 --undefined-- 41.191
4.70 --undefined-- 40.428
4.71 --undefined-- 38.978
4.72 --undefined-- 37.507
4.73 --undefined-- 38.248
4.74 --undefined-- 38.670
4.75 --undefined-- 37.940
4.76 --undefined-- 38.043
4.77 --undefined-- 37.926
4.78 --undefined-- 37.291
4.79 --undefined-- 37.571
4.80 --undefined-- 37.599
4.81 --undefined-- 37.170
4.82 --undefined-- 36.941
4.83 --undefined-- 37.203
4.84 --undefined-- 39.917
4.85 --undefined-- 47.766
4.86 --undefined-- 56.422
4.87 --undefined-- 61.415
4.88 --undefined-- 65.343
4.89 184.557 70.305
4.90 184.805 73.576
4.91 184.857 74.798
4.92 184.808 74.870
4.93 184.815 74.691
4.94 187.346 74.765
4.95 189.248 75.060
4.96 186.167 75.344
4.97 182.067 75.600
4.98 177.687 75.902
4.99 172.963 76.247
5.00 167.068 76.612
5.01 159.433 77.163
5.02 151.770 77.942
5.03 146.777 78.480
5.04 141.603 78.327
5.05 135.647 77.450
5.06 133.452 75.900
5.07 131.817 73.960
5.08 131.030 72.317
5.09 130.463 71.313
5.10 129.533 70.860
5.11 128.376 71.182
5.12 131.343 72.117
5.13 131.326 73.255
5.14 131.446 74.364
5.15 127.793 75.133
5.16 126.351 75.550
5.17 118.921 75.614
5.18 117.233 75.481
5.19 116.589 75.446
5.20 116.148 75.548
5.21 116.671 75.725
5.22 118.427 75.928
5.23 120.463 76.026
5.24 122.247 76.049
5.25 124.120 76.031
5.26 128.093 75.970
5.27 129.478 75.769
5.28 131.081 75.096
5.29 133.829 73.812
5.30 134.193 72.129
5.31 134.222 70.220
5.32 --undefined-- 68.316
5.33 --undefined-- 65.779
5.34 --undefined-- 61.235
5.35 --undefined-- 53.644
5.36 --undefined-- 46.565
5.37 --undefined-- 44.071
5.38 --undefined-- 41.144
5.39 --undefined-- 38.507
5.40 --undefined-- 37.722
5.41 --undefined-- 41.151
5.42 --undefined-- 53.534
5.43 --undefined-- 63.092
5.44 137.746 68.652
5.45 125.336 71.365
5.46 121.352 72.476
5.47 121.048 73.049
5.48 120.300 73.423
5.49 119.466 73.721
5.50 119.233 73.989
5.51 120.020 74.206
5.52 122.132 74.445
5.53 125.737 74.802
5.54 130.294 75.365
5.55 135.586 76.321
5.56 139.084 77.593
5.57 143.064 78.700
5.58 150.054 79.428
5.59 147.900 79.240
5.60 145.484 77.802
5.61 144.533 75.337
5.62 141.115 71.363
5.63 142.866 65.080
5.64 --undefined-- 57.537
5.65 --undefined-- 55.888
5.66 --undefined-- 57.083
5.67 --undefined-- 58.160
5.68 --undefined-- 58.616
5.69 --undefined-- 58.662
5.70 --undefined-- 58.960
5.71 --undefined-- 58.880
5.72 --undefined-- 60.213
5.73 201.416 67.109
5.74 195.483 72.515
5.75 182.420 75.479
5.76 176.759 77.058
5.77 175.673 77.810
5.78 176.278 77.962
5.79 176.897 77.956
5.80 177.369 78.060
5.81 177.475 78.205
5.82 177.343 78.244
5.83 176.517 78.002
5.84 174.614 77.279
5.85 173.210 76.058
5.86 173.864 74.816
5.87 172.123 73.612
5.88 168.007 72.088
5.89 160.590 70.137
5.90 149.978 68.258
5.91 --undefined-- 65.950
5.92 --undefined-- 61.695
5.93 --undefined-- 55.256
5.94 --undefined-- 51.074
5.95 --undefined-- 47.218
5.96 --undefined-- 41.613
5.97 --undefined-- 38.495
5.98 --undefined-- 38.677
5.99 --undefined-- 38.939
6.00 --undefined-- 39.329
6.01 --undefined-- 40.018
6.02 --undefined-- 40.445
6.03 --undefined-- 39.753
6.04 --undefined-- 38.713
6.05 --undefined-- 38.851
6.06 --undefined-- 41.285
6.07 --undefined-- 43.548
6.08 --undefined-- 43.807
6.09 --undefined-- 42.944
6.10 --undefined-- 41.662
6.11 --undefined-- 39.738
6.12 --undefined-- 41.059
6.13 --undefined-- --undefined--
6.14 --undefined-- --undefined--
6.15 --undefined-- --undefined--
6.16 --undefined-- --undefined--
