Time Pitch Intensity
0.01 --undefined-- --undefined--
0.02 115.467 --undefined--
0.03 115.207 --undefined--
0.04 115.470 --undefined--
0.05 155.896 66.915
0.06 148.473 66.386
0.07 146.454 66.343
0.08 144.198 66.423
0.09 142.003 66.364
0.10 140.939 66.293
0.11 140.404 66.355
0.12 139.638 66.448
0.13 139.067 66.216
0.14 139.008 65.735
0.15 139.214 65.448
0.16 139.167 65.374
0.17 138.470 65.245
0.18 137.343 64.979
0.19 136.422 64.583
0.20 135.570 63.915
0.21 135.005 63.065
0.22 135.043 62.478
0.23 134.769 62.203
0.24 134.553 61.934
0.25 134.941 61.649
0.26 134.928 61.526
0.27 134.304 61.272
0.28 133.988 60.545
0.29 133.805 59.528
0.30 134.492 58.880
0.31 135.786 58.681
0.32 --undefined-- 58.634
0.33 --undefined-- 58.175
0.34 --undefined-- 57.551
0.35 --undefined-- 57.880
0.36 --undefined-- 57.020
0.37 --undefined-- 52.660
0.38 --undefined-- 45.199
0.39 --undefined-- 41.776
0.40 --undefined-- 40.158
0.41 --undefined-- 38.516
0.42 --undefined-- 37.886
0.43 --undefined-- 38.514
0.44 --undefined-- 40.135
0.45 --undefined-- 40.644
0.46 --undefined-- 40.069
0.47 --undefined-- 42.444
0.48 --undefined-- 52.562
0.49 --undefined-- 60.041
0.50 --undefined-- 63.300
0.51 --undefined-- 63.291
0.52 --undefined-- 61.053
0.53 --undefined-- 56.508
0.54 --undefined-- 49.052
0.55 --undefined-- 45.824
0.56 --undefined-- 50.169
0.57 --undefined-- 52.711
0.58 --undefined-- 54.152
0.59 --undefined-- 58.503
0.60 176.638 64.842
0.61 175.492 69.223
0.62 174.774 71.169
0.63 172.353 71.392
0.64 170.495 70.347
0.65 169.576 67.551
0.66 --undefined-- 62.609
0.67 --undefined-- 57.859
0.68 --undefined-- 55.883
0.69 --undefined-- 54.201
0.70 --undefined-- 54.045
0.71 --undefined-- 55.102
0.72 --undefined-- 55.265
0.73 --undefined-- 54.191
0.74 --undefined-- 52.624
0.75 --undefined-- 52.789
0.76 --undefined-- 57.393
0.77 --undefined-- 65.373
0.78 --undefined-- 70.890
0.79 183.561 73.065
0.80 175.809 72.373
0.81 159.895 69.266
0.82 153.768 63.963
0.83 --undefined-- 57.592
0.84 --undefined-- 56.484
0.85 --undefined-- 57.985
0.86 --undefined-- 58.174
0.87 --undefined-- 57.035
0.88 124.936 57.168
0.89 123.322 58.837
0.90 123.116 59.486
0.91 120.395 59.882
0.92 --undefined-- 61.719
0.93 --undefined-- 62.783
0.94 --undefined-- 62.218
0.95 --undefined-- 61.789
0.96 --undefined-- 61.556
0.97 --undefined-- 60.660
0.98 --undefined-- 59.674
0.99 --undefined-- 60.219
1.00 --undefined-- 64.460
1.01 --undefined-- 68.578
1.02 146.546 70.707
1.03 142.834 71.187
1.04 140.809 70.670
1.05 139.794 69.670
1.06 138.804 68.777
1.07 136.875 67.928
1.08 134.535 66.619
1.09 132.261 64.617
1.10 132.074 61.731
1.11 134.043 58.484
1.12 134.312 56.494
1.13 135.593 55.684
1.14 136.416 54.750
1.15 135.446 53.534
1.16 133.882 52.207
1.17 131.104 51.334
1.18 129.076 51.368
1.19 128.169 51.785
1.20 127.436 52.316
1.21 127.416 53.232
1.22 123.998 54.812
1.23 124.267 57.457
1.24 124.802 60.954
1.25 127.329 63.843
1.26 128.704 65.016
1.27 124.989 64.549
1.28 --undefined-- 63.006
1.29 --undefined-- 60.264
1.30 --undefined-- 58.346
1.31 --undefined-- 60.166
1.32 --undefined-- 61.002
1.33 --undefined-- 59.404
1.34 --undefined-- 56.766
1.35 --undefined-- 55.015
1.36 --undefined-- 59.119
1.37 --undefined-- 65.911
1.38 --undefined-- 69.665
1.39 --undefined-- 70.706
1.40 122.865 70.131
1.41 125.599 68.704
1.42 --undefined-- 66.516
1.43 120.948 64.631
1.44 118.121 63.717
1.45 121.008 63.389
1.46 123.641 63.052
1.47 126.465 62.601
1.48 134.401 62.897
1.49 133.158 63.499
1.50 135.987 64.022
1.51 --undefined-- 64.924
1.52 130.869 66.045
1.53 130.249 67.030
1.54 131.038 67.226
1.55 82.451 66.462
1.56 76.718 65.868
1.57 75.526 65.577
1.58 75.721 65.325
1.59 --undefined-- 65.199
1.60 161.302 65.213
1.61 159.750 65.402
1.62 157.253 65.640
1.63 153.896 65.881
1.64 152.321 65.705
1.65 151.833 64.783
1.66 150.776 62.744
1.67 151.612 59.847
1.68 152.604 58.167
1.69 151.964 57.888
1.70 151.381 57.890
1.71 151.659 57.837
1.72 153.607 57.584
1.73 156.428 57.148
1.74 160.322 56.550
1.75 163.585 56.052
1.76 168.670 55.709
1.77 178.999 55.878
1.78 179.622 56.428
1.79 202.981 56.230
1.80 208.254 54.733
1.81 206.380 52.104
1.82 214.714 49.417
1.83 --undefined-- 46.547
1.84 --undefined-- 43.914
1.85 --undefined-- 44.019
1.86 --undefined-- 44.160
1.87 --undefined-- 43.065
1.88 --undefined-- 43.436
1.89 --undefined-- 44.787
1.90 --undefined-- 51.866
1.91 --undefined-- 60.024
1.92 --undefined-- 65.057
1.93 --undefined-- 67.593
1.94 170.907 67.986
1.95 166.076 67.664
1.96 163.645 68.908
1.97 165.729 69.976
1.98 166.439 69.048
1.99 165.813 65.621
2.00 159.414 59.453
2.01 163.264 51.277
2.02 --undefined-- 48.340
2.03 --undefined-- 53.365
2.04 --undefined-- 61.130
2.05 232.595 66.960
2.06 231.711 70.048
2.07 232.460 70.958
2.08 236.609 70.645
2.09 239.646 70.297
2.10 239.462 70.680
2.11 238.384 71.840
2.12 235.703 73.291
2.13 234.271 74.384
2.14 233.513 74.870
2.15 227.987 74.743
2.16 219.933 74.448
2.17 214.779 74.009
2.18 214.941 72.348
2.19 224.208 68.652
2.20 227.646 63.466
2.21 219.939 59.519
2.22 215.990 57.251
2.23 215.736 55.266
2.24 214.430 55.371
2.25 211.029 57.105
2.26 210.236 58.368
2.27 207.914 58.245
2.28 199.017 56.754
2.29 194.702 54.514
2.30 --undefined-- 51.141
2.31 --undefined-- 47.580
2.32 --undefined-- 48.929
2.33 --undefined-- 52.818
2.34 --undefined-- 55.633
2.35 --undefined-- 56.362
2.36 --undefined-- 55.947
2.37 --undefined-- 55.869
2.38 --undefined-- 55.966
2.39 --undefined-- 55.022
2.40 --undefined-- 54.182
2.41 --undefined-- 56.788
2.42 --undefined-- 60.308
2.43 --undefined-- 62.535
2.44 125.781 63.581
2.45 124.209 63.706
2.46 120.982 62.660
2.47 122.234 60.346
2.48 --undefined-- 57.924
2.49 --undefined-- 57.935
2.50 --undefined-- 58.335
2.51 --undefined-- 59.412
2.52 --undefined-- 61.245
2.53 --undefined-- 62.155
2.54 --undefined-- 62.989
2.55 183.048 64.089
2.56 189.309 65.626
2.57 193.221 66.931
2.58 195.381 67.525
2.59 197.090 67.888
2.60 198.415 68.381
2.61 199.729 69.002
2.62 201.254 69.670
2.63 202.234 70.111
2.64 200.516 70.340
2.65 196.006 71.106
2.66 191.579 72.236
2.67 183.531 72.844
2.68 175.895 72.534
2.69 168.235 71.018
2.70 161.356 68.123
2.71 156.523 63.630
2.72 --undefined-- 57.518
2.73 --undefined-- 52.289
2.74 --undefined-- 50.875
2.75 --undefined-- 50.720
2.76 --undefined-- 51.743
2.77 --undefined-- 53.134
2.78 --undefined-- 53.189
2.79 --undefined-- 51.951
2.80 --undefined-- 55.413
2.81 --undefined-- 63.600
2.82 159.977 68.808
2.83 155.163 71.070
2.84 143.869 71.333
2.85 135.846 70.438
2.86 131.782 68.049
2.87 127.357 63.766
2.88 125.132 60.052
2.89 123.515 58.477
2.90 121.000 56.942
2.91 122.215 55.160
2.92 123.726 53.120
2.93 --undefined-- 50.438
2.94 --undefined-- 47.303
2.95 --undefined-- 45.118
2.96 --undefined-- 43.897
2.97 --undefined-- 47.173
2.98 --undefined-- 54.047
2.99 --undefined-- 58.752
3.00 --undefined-- 62.250
3.01 147.551 64.692
3.02 141.062 65.353
3.03 137.940 64.471
3.04 136.818 62.772
3.05 135.786 60.680
3.06 133.206 58.229
3.07 130.122 55.295
3.08 128.317 51.673
3.09 135.238 48.274
3.10 --undefined-- 47.674
3.11 --undefined-- 50.216
3.12 --undefined-- 54.483
3.13 --undefined-- 57.642
3.14 --undefined-- 58.546
3.15 --undefined-- 59.048
3.16 --undefined-- 59.852
3.17 --undefined-- 59.567
3.18 --undefined-- 59.195
3.19 --undefined-- 59.139
3.20 --undefined-- 59.284
3.21 --undefined-- 62.714
3.22 --undefined-- 66.715
3.23 150.171 68.488
3.24 147.996 68.677
3.25 147.517 68.472
3.26 147.171 67.927
3.27 147.688 66.382
3.28 148.049 63.579
3.29 152.000 60.598
3.30 158.770 58.914
3.31 166.092 57.839
3.32 174.036 58.013
3.33 182.076 60.162
3.34 188.090 63.022
3.35 199.015 66.258
3.36 207.222 69.046
3.37 205.796 70.652
3.38 206.596 71.208
3.39 205.892 70.374
3.40 202.844 67.448
3.41 203.223 62.723
3.42 190.550 58.976
3.43 196.989 57.440
3.44 199.086 56.559
3.45 200.498 55.782
3.46 --undefined-- 55.443
3.47 --undefined-- 58.593
3.48 204.166 64.638
3.49 204.536 68.653
3.50 204.132 70.595
3.51 201.602 71.613
3.52 198.935 72.255
3.53 196.583 72.138
3.54 193.260 70.964
3.55 189.739 68.860
3.56 186.816 65.894
3.57 182.949 62.265
3.58 181.791 59.819
3.59 174.554 58.545
3.60 166.516 57.602
3.61 160.901 58.038
3.62 157.303 60.027
3.63 152.361 62.197
3.64 148.439 63.514
3.65 145.486 64.234
3.66 143.445 64.716
3.67 141.471 64.749
3.68 138.774 64.011
3.69 135.570 62.351
3.70 133.749 59.831
3.71 132.354 57.159
3.72 139.077 57.330
3.73 142.115 59.784
3.74 141.968 61.622
3.75 141.533 62.535
3.76 138.703 62.611
3.77 136.746 61.249
3.78 138.753 58.394
3.79 144.853 59.213
3.80 145.522 62.050
3.81 149.607 63.349
3.82 156.660 63.985
3.83 162.452 65.085
3.84 164.215 65.880
3.85 163.679 65.220
3.86 163.148 63.137
3.87 160.662 60.952
3.88 158.271 60.116
3.89 155.728 60.020
3.90 150.032 59.475
3.91 143.792 57.810
3.92 140.251 54.325
3.93 --undefined-- 48.588
3.94 --undefined-- 46.323
3.95 --undefined-- 53.024
3.96 --undefined-- 57.812
3.97 --undefined-- 59.237
3.98 --undefined-- 58.605
3.99 --undefined-- 58.001
4.00 --undefined-- 57.377
4.01 --undefined-- 56.864
4.02 --undefined-- 59.355
4.03 --undefined-- 64.436
4.04 --undefined-- 67.560
4.05 130.815 68.447
4.06 128.382 67.872
4.07 133.294 66.728
4.08 135.001 65.786
4.09 134.984 64.920
4.10 132.239 62.677
4.11 126.974 58.009
4.12 133.498 51.872
4.13 134.481 50.313
4.14 --undefined-- 52.576
4.15 --undefined-- 56.146
4.16 --undefined-- 60.706
4.17 157.912 63.973
4.18 156.869 65.405
4.19 156.183 65.089
4.20 154.608 62.765
4.21 --undefined-- 57.972
4.22 --undefined-- 51.306
4.23 --undefined-- 50.673
4.24 --undefined-- 55.502
4.25 --undefined-- 58.388
4.26 --undefined-- 58.290
4.27 --undefined-- 56.613
4.28 --undefined-- 55.171
4.29 --undefined-- 54.609
4.30 --undefined-- 59.442
4.31 --undefined-- 65.855
4.32 184.199 69.608
4.33 178.485 70.593
4.34 --undefined-- 69.392
4.35 --undefined-- 67.010
4.36 --undefined-- 63.971
4.37 --undefined-- 60.487
4.38 --undefined-- 57.574
4.39 --undefined-- 54.225
4.40 --undefined-- 54.537
4.41 --undefined-- 59.429
4.42 76.363 62.084
4.43 76.099 62.279
4.44 --undefined-- 60.309
4.45 --undefined-- 59.033
4.46 --undefined-- 58.684
4.47 --undefined-- 57.500
4.48 --undefined-- 56.867
4.49 230.652 58.672
4.50 228.662 61.250
4.51 228.903 61.680
4.52 241.313 63.318
4.53 252.805 64.245
4.54 258.360 61.483
4.55 --undefined-- 57.640
4.56 --undefined-- 60.709
4.57 --undefined-- 62.603
4.58 --undefined-- 60.423
4.59 --undefined-- 53.996
4.60 --undefined-- 45.926
4.61 --undefined-- 43.191
4.62 --undefined-- 41.890
4.63 --undefined-- 40.692
4.64 --undefined-- 40.655
4.65 --undefined-- 41.470
4.66 --undefined-- 41.754
4.67 --undefined-- 42.633
4.68 --undefined-- 44.400
4.69 --undefined-- 46.117
4.70 --undefined-- 47.374
4.71 --undefined-- 47.845
4.72 --undefined-- 47.942
4.73 --undefined-- 48.402
4.74 --undefined-- 48.797
4.75 --undefined-- 49.019
4.76 --undefined-- 49.450
4.77 --undefined-- 49.775
4.78 --undefined-- 49.873
4.79 --undefined-- 50.244
4.80 --undefined-- 50.712
4.81 --undefined-- 51.049
4.82 --undefined-- 51.605
4.83 --undefined-- 52.299
4.84 --undefined-- 53.061
4.85 --undefined-- 54.128
4.86 --undefined-- 55.068
4.87 --undefined-- 55.214
4.88 --undefined-- 55.256
4.89 --undefined-- 56.591
4.90 --undefined-- 57.650
4.91 --undefined-- 57.589
4.92 --undefined-- 56.681
4.93 --undefined-- 55.018
4.94 --undefined-- 54.172
4.95 --undefined-- 54.267
4.96 --undefined-- 53.796
4.97 --undefined-- 52.768
4.98 --undefined-- 52.184
4.99 --undefined-- 51.859
5.00 --undefined-- 51.285
5.01 --undefined-- 50.688
5.02 --undefined-- 49.236
5.03 --undefined-- 46.354
5.04 --undefined-- 43.853
5.05 --undefined-- 43.268
5.06 --undefined-- 41.927
5.07 --undefined-- 39.625
5.08 --undefined-- 39.073
5.09 --undefined-- 44.973
5.10 --undefined-- 53.668
5.11 --undefined-- 59.019
5.12 --undefined-- 61.264
5.13 --undefined-- 64.934
5.14 237.613 70.725
5.15 232.904 73.385
5.16 230.737 72.333
5.17 230.397 67.773
5.18 237.233 63.528
5.19 244.728 65.033
5.20 255.724 66.968
5.21 263.537 --undefined--
5.22 272.186 --undefined--
5.23 --undefined-- --undefined--
5.24 --undefined-- --undefined--
