Time Pitch Intensity
0.01 --undefined-- --undefined--
0.02 177.889 --undefined--
0.03 176.193 --undefined--
0.04 176.566 --undefined--
0.05 175.666 80.498
0.06 174.890 80.104
0.07 172.499 79.572
0.08 170.687 78.658
0.09 167.899 76.991
0.10 159.861 74.391
0.11 152.753 71.574
0.12 138.408 68.833
0.13 131.917 66.514
0.14 164.555 65.833
0.15 170.460 66.825
0.16 183.837 71.877
0.17 180.275 76.940
0.18 165.841 79.650
0.19 150.792 80.421
0.20 143.480 79.999
0.21 133.664 79.369
0.22 131.951 79.468
0.23 130.599 79.815
0.24 129.684 79.401
0.25 126.347 78.219
0.26 122.987 77.150
0.27 119.696 76.520
0.28 117.442 75.889
0.29 116.166 74.802
0.30 109.307 72.699
0.31 107.274 69.454
0.32 95.809 65.584
0.33 92.883 61.807
0.34 --undefined-- 59.111
0.35 --undefined-- 58.041
0.36 --undefined-- 58.033
0.37 --undefined-- 58.415
0.38 --undefined-- 58.994
0.39 --undefined-- 59.638
0.40 --undefined-- 60.021
0.41 --undefined-- 60.184
0.42 --undefined-- 60.651
0.43 --undefined-- 65.410
0.44 --undefined-- 71.675
0.45 126.487 75.857
0.46 118.107 78.773
0.47 118.374 81.028
0.48 118.249 82.208
0.49 118.462 82.316
0.50 118.504 81.668
0.51 117.143 80.234
0.52 114.593 78.331
0.53 111.192 77.354
0.54 112.813 77.518
0.55 113.091 77.737
0.56 113.190 77.999
0.57 115.637 78.229
0.58 116.842 77.835
0.59 114.242 77.034
0.60 114.783 76.557
0.61 114.803 75.916
0.62 111.500 74.367
0.63 107.705 71.781
0.64 107.467 68.789
0.65 105.649 66.178
0.66 117.403 63.685
0.67 --undefined-- 61.363
0.68 --undefined-- 61.051
0.69 --undefined-- 61.671
0.70 --undefined-- 63.597
0.71 --undefined-- 68.867
0.72 161.834 73.658
0.73 141.480 76.284
0.74 125.509 77.294
0.75 125.345 77.522
0.76 125.057 77.564
0.77 125.232 77.609
0.78 125.195 77.718
0.79 124.557 77.853
0.80 122.171 77.750
0.81 120.487 77.527
0.82 121.913 77.360
0.83 121.870 76.940
0.84 120.957 76.594
0.85 123.811 77.431
0.86 125.562 78.988
0.87 122.764 80.021
0.88 122.499 80.369
0.89 121.409 80.321
0.90 121.922 80.174
0.91 122.895 79.990
0.92 122.728 79.720
0.93 122.331 79.323
0.94 119.558 78.533
0.95 116.015 76.891
0.96 108.178 74.000
0.97 105.852 69.487
0.98 92.797 63.042
0.99 --undefined-- 55.409
1.00 --undefined-- 51.241
1.01 --undefined-- 49.598
1.02 --undefined-- 48.379
1.03 --undefined-- 49.662
1.04 --undefined-- 51.624
1.05 --undefined-- 52.126
1.06 --undefined-- 51.318
1.07 --undefined-- 50.938
1.08 --undefined-- 51.042
1.09 --undefined-- 50.848
1.10 --undefined-- 50.484
1.11 --undefined-- 49.652
1.12 --undefined-- 48.420
1.13 --undefined-- 47.172
1.14 --undefined-- 46.288
1.15 --undefined-- 45.317
1.16 --undefined-- 44.208
1.17 --undefined-- 43.482
1.18 --undefined-- 42.632
1.19 --undefined-- 43.537
1.20 --undefined-- 46.695
1.21 --undefined-- 49.242
1.22 --undefined-- 50.953
1.23 --undefined-- 52.183
1.24 --undefined-- 52.241
1.25 --undefined-- 54.095
1.26 --undefined-- 59.092
1.27 --undefined-- 65.194
1.28 --undefined-- 70.477
1.29 --undefined-- 73.549
1.30 130.201 74.439
1.31 119.460 73.347
1.32 115.082 70.846
1.33 114.434 67.999
1.34 126.056 66.981
1.35 150.687 71.384
1.36 144.531 75.468
1.37 125.481 77.381
1.38 123.949 77.537
1.39 117.518 76.686
1.40 116.162 76.195
1.41 121.274 76.406
1.42 123.988 76.478
1.43 125.776 76.340
1.44 125.171 76.184
1.45 124.257 75.954
1.46 126.547 75.325
1.47 119.418 74.374
1.48 117.460 74.124
1.49 117.611 74.765
1.50 116.759 75.521
1.51 116.672 75.978
1.52 116.736 76.145
1.53 116.220 76.106
1.54 116.947 75.970
1.55 116.718 75.763
1.56 115.839 75.607
1.57 115.768 75.624
1.58 116.834 75.554
1.59 116.525 75.042
1.60 115.698 73.919
1.61 110.789 72.080
1.62 107.569 69.732
1.63 112.899 67.256
1.64 119.906 64.638
1.65 128.709 62.603
1.66 130.018 65.441
1.67 151.810 70.784
1.68 125.152 74.090
1.69 119.908 75.326
1.70 111.778 75.298
1.71 111.072 74.783
1.72 112.435 74.259
1.73 112.948 73.877
1.74 113.027 73.613
1.75 113.448 73.476
1.76 113.603 73.559
1.77 112.695 73.937
1.78 111.533 74.403
1.79 109.568 74.697
1.80 106.689 74.789
1.81 103.609 74.588
1.82 102.101 74.037
1.83 102.068 73.214
1.84 102.647 71.816
1.85 99.070 69.222
1.86 102.235 65.726
1.87 111.092 62.656
1.88 --undefined-- 60.787
1.89 --undefined-- 61.407
1.90 --undefined-- 62.935
1.91 --undefined-- 63.703
1.92 --undefined-- 64.338
1.93 --undefined-- 65.022
1.94 --undefined-- 65.246
1.95 --undefined-- 65.240
1.96 --undefined-- 67.628
1.97 128.208 71.708
1.98 122.531 74.108
1.99 108.152 74.980
2.00 107.409 75.462
2.01 107.564 76.002
2.02 107.545 76.346
2.03 107.385 76.342
2.04 107.161 76.041
2.05 107.159 75.496
2.06 106.207 74.565
2.07 104.389 73.131
2.08 101.717 71.371
2.09 98.871 70.024
2.10 99.448 70.343
2.11 104.268 72.047
2.12 103.506 73.225
2.13 99.434 73.525
2.14 98.613 73.507
2.15 99.892 73.519
2.16 100.518 73.547
2.17 100.536 73.483
2.18 100.359 73.334
2.19 100.255 73.085
2.20 100.023 72.498
2.21 96.494 71.780
2.22 97.712 71.670
2.23 98.716 71.869
2.24 97.282 71.724
2.25 95.547 71.340
2.26 95.708 71.110
2.27 95.627 71.181
2.28 94.178 71.396
2.29 93.339 71.481
2.30 92.657 71.357
2.31 90.915 71.085
2.32 90.140 70.876
2.33 88.983 70.454
2.34 87.728 69.870
2.35 88.053 69.507
2.36 86.844 69.068
2.37 85.356 68.457
2.38 86.970 68.230
2.39 90.062 68.388
2.40 90.576 68.492
2.41 90.953 68.580
2.42 92.242 68.821
2.43 91.064 69.258
2.44 91.352 70.005
2.45 92.473 70.998
2.46 98.094 71.649
2.47 97.670 71.707
2.48 95.236 71.323
2.49 93.804 70.604
2.50 95.016 69.902
2.51 89.581 69.164
2.52 90.682 68.668
2.53 90.158 68.931
2.54 88.393 68.961
2.55 85.414 68.110
2.56 84.793 66.745
2.57 91.275 65.897
2.58 79.320 65.447
2.59 99.247 65.182
2.60 96.565 65.639
2.61 88.453 66.377
2.62 108.465 67.144
2.63 97.076 67.147
2.64 101.012 66.516
2.65 92.018 67.425
2.66 103.448 70.366
2.67 109.507 73.056
2.68 109.518 74.537
2.69 111.351 75.117
2.70 114.896 75.843
2.71 118.439 76.415
2.72 116.972 75.620
2.73 121.130 73.186
2.74 151.525 69.863
2.75 155.513 66.407
2.76 142.336 61.665
2.77 --undefined-- 54.854
2.78 --undefined-- 51.713
2.79 --undefined-- 50.547
2.80 --undefined-- 47.990
2.81 --undefined-- 46.641
2.82 --undefined-- 47.451
2.83 --undefined-- 48.597
2.84 --undefined-- 48.654
2.85 --undefined-- 48.231
2.86 --undefined-- 47.896
2.87 --undefined-- 47.837
2.88 --undefined-- 47.902
2.89 --undefined-- 47.608
2.90 --undefined-- 47.102
2.91 --undefined-- 46.958
2.92 --undefined-- 47.043
2.93 --undefined-- 46.988
2.94 --undefined-- 46.422
2.95 --undefined-- 45.550
2.96 --undefined-- 45.681
2.97 --undefined-- 46.457
2.98 --undefined-- 46.587
2.99 --undefined-- 46.116
3.00 --undefined-- 46.354
3.01 --undefined-- 46.902
3.02 --undefined-- 46.285
3.03 --undefined-- 44.933
3.04 --undefined-- 43.982
3.05 --undefined-- 44.059
3.06 --undefined-- 44.766
3.07 --undefined-- 46.871
3.08 --undefined-- 52.024
3.09 --undefined-- 54.690
3.10 --undefined-- 54.723
3.11 --undefined-- 55.850
3.12 --undefined-- 61.302
3.13 --undefined-- 67.032
3.14 111.814 70.063
3.15 109.652 71.266
3.16 113.070 72.032
3.17 118.471 72.510
3.18 121.190 72.654
3.19 125.526 72.951
3.20 129.043 73.563
3.21 131.434 73.971
3.22 133.170 73.717
3.23 132.918 72.539
3.24 132.900 70.508
3.25 129.475 67.964
3.26 124.876 64.587
3.27 132.450 61.491
3.28 --undefined-- 65.787
3.29 --undefined-- 71.111
3.30 122.030 73.921
3.31 115.040 74.665
3.32 109.486 74.480
3.33 108.014 74.280
3.34 106.089 74.139
3.35 104.509 73.729
3.36 105.190 73.284
3.37 106.709 73.156
3.38 108.676 73.218
3.39 111.541 73.272
3.40 114.498 73.069
3.41 114.809 72.384
3.42 115.095 71.287
3.43 116.300 70.298
3.44 117.365 69.906
3.45 120.659 70.282
3.46 124.094 71.212
3.47 123.578 72.175
3.48 125.008 73.241
3.49 126.844 74.572
3.50 127.824 75.667
3.51 128.389 76.141
3.52 130.524 76.045
3.53 133.531 75.559
3.54 136.263 74.936
3.55 139.936 74.391
3.56 142.791 73.945
3.57 146.249 73.516
3.58 145.480 72.307
3.59 138.245 69.307
3.60 138.536 64.385
3.61 --undefined-- 58.617
3.62 --undefined-- 55.063
3.63 --undefined-- 55.217
3.64 --undefined-- 61.606
3.65 --undefined-- 67.834
3.66 129.858 71.200
3.67 116.284 72.511
3.68 114.927 72.881
3.69 112.429 72.877
3.70 109.220 72.689
3.71 108.511 72.545
3.72 108.376 72.381
3.73 108.938 72.016
3.74 108.799 71.001
3.75 106.684 69.097
3.76 108.717 66.883
3.77 114.393 64.515
3.78 124.179 61.299
3.79 --undefined-- 57.226
3.80 --undefined-- 55.601
3.81 --undefined-- 61.275
3.82 186.869 68.489
3.83 162.328 72.770
3.84 152.185 74.416
3.85 146.067 74.534
3.86 147.214 74.584
3.87 148.674 75.053
3.88 149.405 75.502
3.89 148.376 75.742
3.90 147.781 75.748
3.91 148.091 75.731
3.92 149.580 75.675
3.93 150.583 75.311
3.94 151.210 74.833
3.95 156.417 74.716
3.96 156.333 74.688
3.97 153.717 74.306
3.98 148.378 73.276
3.99 140.569 71.320
4.00 128.245 68.247
4.01 115.842 64.483
4.02 112.162 60.607
4.03 --undefined-- 56.244
4.04 --undefined-- 51.925
4.05 --undefined-- 52.654
4.06 --undefined-- 57.926
4.07 --undefined-- 63.561
4.08 --undefined-- 66.878
4.09 95.939 68.137
4.10 95.026 68.305
4.11 93.340 68.033
4.12 91.917 67.470
4.13 91.142 67.078
4.14 91.703 67.065
4.15 92.854 67.183
4.16 98.662 67.559
4.17 103.003 68.093
4.18 105.607 68.959
4.19 124.365 70.772
4.20 125.420 72.755
4.21 128.072 74.198
4.22 128.974 75.140
4.23 131.277 75.537
4.24 133.440 74.998
4.25 127.622 73.094
4.26 126.476 70.060
4.27 128.373 66.963
4.28 126.216 64.205
4.29 135.527 63.998
4.30 163.238 68.657
4.31 157.082 72.886
4.32 142.270 75.079
4.33 127.086 75.866
4.34 123.091 76.004
4.35 120.680 75.797
4.36 120.126 75.289
4.37 119.860 74.720
4.38 118.643 74.220
4.39 117.395 73.309
4.40 115.460 71.501
4.41 114.500 69.032
4.42 115.557 66.316
4.43 124.824 62.687
4.44 --undefined-- 58.908
4.45 --undefined-- 61.954
4.46 --undefined-- 67.902
4.47 133.845 72.146
4.48 121.220 74.072
4.49 118.991 74.181
4.50 113.695 73.616
4.51 115.422 73.988
4.52 116.346 75.187
4.53 116.029 75.916
4.54 115.254 76.006
4.55 114.644 75.783
4.56 114.018 75.461
4.57 113.194 75.215
4.58 111.586 75.125
4.59 111.107 75.197
4.60 110.028 75.213
4.61 109.442 74.940
4.62 109.112 74.461
4.63 107.606 73.961
4.64 106.323 73.269
4.65 106.077 71.902
4.66 103.985 69.336
4.67 105.674 65.518
4.68 112.413 60.377
4.69 --undefined-- 54.915
4.70 --undefined-- 54.096
4.71 --undefined-- 56.118
4.72 --undefined-- 58.040
4.73 --undefined-- 59.073
4.74 --undefined-- 59.328
4.75 --undefined-- 63.045
4.76 --undefined-- 69.934
4.77 143.060 74.746
4.78 127.252 77.398
4.79 121.130 78.612
4.80 120.426 78.864
4.81 117.890 78.500
4.82 115.935 77.767
4.83 113.929 76.837
4.84 113.290 76.065
4.85 113.865 75.830
4.86 114.477 76.394
4.87 117.023 77.565
4.88 118.645 78.681
4.89 122.461 79.437
4.90 122.230 79.873
4.91 118.122 79.953
4.92 118.610 79.564
4.93 118.016 78.494
4.94 115.244 76.340
4.95 112.177 72.589
4.96 108.059 66.920
4.97 94.498 59.811
4.98 --undefined-- 53.780
4.99 --undefined-- 50.311
5.00 --undefined-- 46.870
5.01 --undefined-- 42.929
5.02 --undefined-- 40.843
5.03 --undefined-- 40.235
5.04 --undefined-- 40.830
5.05 --undefined-- 41.313
5.06 --undefined-- 41.882
5.07 --undefined-- 41.521
5.08 --undefined-- 39.855
5.09 --undefined-- 39.950
5.10 --undefined-- 41.597
5.11 --undefined-- 43.713
5.12 --undefined-- 47.490
5.13 --undefined-- 49.596
5.14 --undefined-- 48.317
5.15 --undefined-- 44.265
5.16 --undefined-- 40.491
5.17 --undefined-- 40.076
5.18 --undefined-- 41.748
5.19 --undefined-- 42.604
5.20 --undefined-- 42.091
5.21 --undefined-- 40.390
5.22 --undefined-- 37.913
5.23 --undefined-- 36.978
5.24 --undefined-- 39.803
5.25 --undefined-- 42.927
5.26 --undefined-- 43.395
5.27 --undefined-- 49.007
5.28 --undefined-- 59.900
5.29 --undefined-- 66.807
5.30 --undefined-- 70.659
5.31 116.032 73.015
5.32 114.868 74.684
5.33 116.383 76.052
5.34 117.603 76.910
5.35 119.850 76.849
5.36 118.601 76.068
5.37 123.199 --undefined--
5.38 133.677 --undefined--
5.39 --undefined-- --undefined--
5.40 --undefined-- --undefined--
