Time Pitch Intensity
0.01 --undefined-- --undefined--
0.02 77.059 --undefined--
0.03 77.903 --undefined--
0.04 81.324 --undefined--
0.05 83.758 60.129
0.06 86.237 59.332
0.07 --undefined-- 57.678
0.08 --undefined-- 54.393
0.09 --undefined-- 49.667
0.10 --undefined-- 45.321
0.11 --undefined-- 42.868
0.12 --undefined-- 44.892
0.13 --undefined-- 54.011
0.14 --undefined-- 59.610
0.15 --undefined-- 62.788
0.16 100.137 66.027
0.17 101.018 68.386
0.18 101.525 69.296
0.19 97.666 69.625
0.20 96.923 69.537
0.21 95.708 68.663
0.22 94.574 67.578
0.23 93.421 67.234
0.24 93.310 67.394
0.25 93.483 67.421
0.26 92.545 67.296
0.27 93.632 67.403
0.28 92.743 67.644
0.29 92.721 67.650
0.30 93.109 67.519
0.31 93.477 67.358
0.32 93.168 67.078
0.33 93.090 66.815
0.34 92.974 66.963
0.35 92.278 67.404
0.36 91.424 67.722
0.37 90.770 67.901
0.38 90.889 67.802
0.39 90.508 67.397
0.40 90.828 67.013
0.41 91.434 66.740
0.42 91.183 66.637
0.43 90.459 66.528
0.44 90.475 66.316
0.45 90.316 66.435
0.46 89.748 66.796
0.47 90.044 66.825
0.48 90.843 66.679
0.49 90.928 66.538
0.50 90.396 66.315
0.51 90.658 66.159
0.52 90.171 66.370
0.53 89.829 66.843
0.54 89.750 67.029
0.55 89.905 66.947
0.56 89.868 66.825
0.57 89.260 66.480
0.58 87.953 66.248
0.59 87.058 66.446
0.60 86.746 66.720
0.61 86.561 66.732
0.62 86.705 66.698
0.63 87.143 66.761
0.64 87.663 66.630
0.65 88.246 66.447
0.66 88.205 66.466
0.67 88.114 66.595
0.68 88.112 66.809
0.69 88.144 67.012
0.70 88.709 67.022
0.71 88.877 66.977
0.72 89.315 66.887
0.73 89.824 66.680
0.74 89.638 66.721
0.75 89.439 67.055
0.76 89.575 67.068
0.77 88.967 66.724
0.78 89.234 66.635
0.79 88.128 66.639
0.80 88.291 66.351
0.81 88.858 66.463
0.82 88.762 66.635
0.83 88.580 66.370
0.84 87.724 65.956
0.85 90.378 65.461
0.86 89.002 64.601
0.87 89.114 63.608
0.88 88.904 62.843
0.89 85.575 61.392
0.90 85.364 58.607
0.91 85.426 54.477
0.92 --undefined-- 49.199
0.93 --undefined-- 44.407
0.94 --undefined-- 42.152
0.95 --undefined-- 41.313
0.96 --undefined-- 40.760
0.97 --undefined-- 41.101
0.98 --undefined-- 42.594
0.99 --undefined-- 43.177
1.00 --undefined-- 44.476
1.01 --undefined-- 47.281
1.02 --undefined-- 50.181
1.03 --undefined-- 51.447
1.04 --undefined-- 51.342
1.05 --undefined-- 51.781
1.06 --undefined-- 52.417
1.07 --undefined-- 52.369
1.08 --undefined-- 51.494
1.09 --undefined-- 50.210
1.10 --undefined-- 48.663
1.11 --undefined-- 47.249
1.12 --undefined-- 46.848
1.13 --undefined-- 47.141
1.14 --undefined-- 47.561
1.15 --undefined-- 47.969
1.16 --undefined-- 48.325
1.17 --undefined-- 48.478
1.18 76.986 48.766
1.19 81.108 49.398
1.20 85.935 50.307
1.21 90.672 51.227
1.22 94.575 52.559
1.23 99.854 55.280
1.24 103.043 59.160
1.25 103.131 63.333
1.26 107.128 66.949
1.27 114.397 69.175
1.28 115.658 69.933
1.29 111.337 69.704
1.30 111.154 68.750
1.31 107.424 67.411
1.32 104.370 66.557
1.33 103.578 66.137
1.34 104.811 65.393
1.35 104.862 63.585
1.36 104.131 59.936
1.37 103.318 54.878
1.38 103.046 51.318
1.39 --undefined-- 49.196
1.40 --undefined-- 46.955
1.41 --undefined-- 44.472
1.42 --undefined-- 42.217
1.43 --undefined-- 40.712
1.44 --undefined-- 39.495
1.45 --undefined-- 38.626
1.46 --undefined-- 38.525
1.47 --undefined-- 38.609
1.48 --undefined-- 38.406
1.49 --undefined-- 37.824
1.50 --undefined-- 37.447
1.51 --undefined-- 37.638
1.52 --undefined-- 37.697
1.53 --undefined-- 37.466
1.54 --undefined-- 36.912
1.55 --undefined-- 36.919
1.56 --undefined-- 37.252
1.57 --undefined-- 40.224
1.58 --undefined-- 44.430
1.59 --undefined-- 45.802
1.60 --undefined-- 45.563
1.61 --undefined-- 45.352
1.62 --undefined-- 43.319
1.63 --undefined-- 39.974
1.64 --undefined-- 38.795
1.65 --undefined-- 39.818
1.66 --undefined-- 41.109
1.67 --undefined-- 41.532
1.68 --undefined-- 41.837
1.69 --undefined-- 42.854
1.70 --undefined-- 43.820
1.71 --undefined-- 44.397
1.72 --undefined-- 44.852
1.73 --undefined-- 45.575
1.74 --undefined-- 46.151
1.75 --undefined-- 46.008
1.76 --undefined-- 45.946
1.77 --undefined-- 46.271
1.78 --undefined-- 46.545
1.79 --undefined-- 47.045
1.80 --undefined-- 47.606
1.81 --undefined-- 47.890
1.82 --undefined-- 48.066
1.83 --undefined-- 47.924
1.84 --undefined-- 47.702
1.85 --undefined-- 47.613
1.86 --undefined-- 47.073
1.87 --undefined-- 46.584
1.88 --undefined-- 46.607
1.89 --undefined-- 46.696
1.90 --undefined-- 46.205
1.91 --undefined-- 45.828
1.92 --undefined-- 46.066
1.93 --undefined-- 46.059
1.94 --undefined-- 45.937
1.95 --undefined-- 45.943
1.96 --undefined-- 45.422
1.97 --undefined-- 44.624
1.98 --undefined-- 43.917
1.99 --undefined-- 44.668
2.00 --undefined-- 47.477
2.01 --undefined-- 47.875
2.02 --undefined-- 44.609
2.03 --undefined-- 40.237
2.04 --undefined-- 39.182
2.05 --undefined-- 38.766
2.06 --undefined-- 39.540
2.07 --undefined-- 44.846
2.08 --undefined-- 50.902
2.09 --undefined-- 56.852
2.10 --undefined-- 62.801
2.11 --undefined-- 67.031
2.12 --undefined-- 67.993
2.13 --undefined-- 65.622
2.14 142.791 62.443
2.15 150.927 62.283
2.16 158.445 62.721
2.17 165.243 63.220
2.18 170.250 64.017
2.19 173.808 64.452
2.20 174.973 63.966
2.21 173.484 62.090
2.22 --undefined-- 58.545
2.23 --undefined-- 55.358
2.24 --undefined-- 55.731
2.25 --undefined-- 57.154
2.26 --undefined-- 58.706
2.27 --undefined-- 60.287
2.28 --undefined-- 63.366
2.29 --undefined-- 69.348
2.30 155.746 73.456
2.31 156.799 74.958
2.32 152.154 74.895
2.33 146.671 74.340
2.34 141.634 73.764
2.35 136.821 73.204
2.36 134.120 72.318
2.37 133.579 70.854
2.38 135.535 69.159
2.39 135.871 67.190
2.40 134.781 64.305
2.41 133.968 59.880
2.42 --undefined-- 53.661
2.43 --undefined-- 46.266
2.44 --undefined-- 39.930
2.45 --undefined-- 36.464
2.46 --undefined-- 35.864
2.47 --undefined-- 41.927
2.48 --undefined-- 51.056
2.49 --undefined-- 57.040
2.50 --undefined-- 60.172
2.51 --undefined-- 64.777
2.52 --undefined-- 69.526
2.53 131.070 72.133
2.54 130.480 73.038
2.55 129.079 72.828
2.56 127.682 71.880
2.57 126.361 70.463
2.58 123.765 68.655
2.59 119.220 66.168
2.60 --undefined-- 62.984
2.61 --undefined-- 60.108
2.62 --undefined-- 57.850
2.63 --undefined-- 56.111
2.64 --undefined-- 57.111
2.65 --undefined-- 56.539
2.66 --undefined-- 55.657
2.67 --undefined-- 59.167
2.68 --undefined-- 61.851
2.69 141.069 63.852
2.70 143.897 66.907
2.71 145.958 70.006
2.72 144.109 71.669
2.73 144.421 72.179
2.74 145.282 72.262
2.75 145.675 72.279
2.76 146.056 72.234
2.77 145.658 72.081
2.78 145.150 71.865
2.79 144.972 71.538
2.80 144.798 71.127
2.81 144.988 70.654
2.82 145.310 69.798
2.83 144.231 68.251
2.84 142.315 66.541
2.85 --undefined-- 65.193
2.86 --undefined-- 62.614
2.87 --undefined-- 58.122
2.88 --undefined-- 53.329
2.89 --undefined-- 50.044
2.90 --undefined-- 48.619
2.91 --undefined-- 46.364
2.92 --undefined-- 42.367
2.93 --undefined-- 38.695
2.94 --undefined-- 36.592
2.95 --undefined-- 35.618
2.96 --undefined-- 34.986
2.97 --undefined-- 34.810
2.98 --undefined-- 35.060
2.99 --undefined-- 35.798
3.00 --undefined-- 36.264
3.01 --undefined-- 36.575
3.02 --undefined-- 37.322
3.03 --undefined-- 38.222
3.04 --undefined-- 39.195
3.05 --undefined-- 40.297
3.06 --undefined-- 40.445
3.07 --undefined-- 40.120
3.08 --undefined-- 40.528
3.09 --undefined-- 40.513
3.10 --undefined-- 40.545
3.11 --undefined-- 40.941
3.12 --undefined-- 40.793
3.13 --undefined-- 40.646
3.14 --undefined-- 41.116
3.15 --undefined-- 41.603
3.16 --undefined-- 41.384
3.17 --undefined-- 40.676
3.18 --undefined-- 40.265
3.19 --undefined-- 40.637
3.20 --undefined-- 41.092
3.21 --undefined-- 40.879
3.22 --undefined-- 40.189
3.23 --undefined-- 39.609
3.24 --undefined-- 39.845
3.25 --undefined-- 41.049
3.26 --undefined-- 42.209
3.27 --undefined-- 42.467
3.28 --undefined-- 41.981
3.29 --undefined-- 41.476
3.30 --undefined-- 40.980
3.31 --undefined-- 40.585
3.32 --undefined-- 40.736
3.33 --undefined-- 40.809
3.34 --undefined-- 40.654
3.35 --undefined-- 40.910
3.36 --undefined-- 41.037
3.37 --undefined-- 40.912
3.38 --undefined-- 40.917
3.39 --undefined-- 40.979
3.40 --undefined-- 41.056
3.41 --undefined-- 41.260
3.42 --undefined-- 41.518
3.43 --undefined-- 41.632
3.44 --undefined-- 41.336
3.45 --undefined-- 41.185
3.46 --undefined-- 41.230
3.47 --undefined-- 40.756
3.48 --undefined-- 40.217
3.49 --undefined-- 40.367
3.50 --undefined-- 40.788
3.51 --undefined-- 40.900
3.52 --undefined-- 40.619
3.53 --undefined-- 40.331
3.54 --undefined-- 40.164
3.55 --undefined-- 39.734
3.56 --undefined-- 40.571
3.57 --undefined-- 46.102
3.58 --undefined-- 51.681
3.59 --undefined-- 57.349
3.60 --undefined-- 63.444
3.61 --undefined-- 66.860
3.62 81.909 68.160
3.63 100.922 68.820
3.64 101.844 69.134
3.65 102.159 69.063
3.66 102.252 68.740
3.67 101.978 68.487
3.68 101.660 68.401
3.69 101.328 68.381
3.70 100.604 68.404
3.71 100.561 68.525
3.72 101.054 68.861
3.73 101.654 69.096
3.74 101.777 69.049
3.75 101.005 68.819
3.76 100.543 68.577
3.77 100.457 68.589
3.78 100.245 68.648
3.79 99.942 68.630
3.80 99.405 68.569
3.81 100.043 68.590
3.82 100.353 68.745
3.83 100.037 68.787
3.84 99.498 68.777
3.85 99.197 68.764
3.86 99.075 68.579
3.87 99.583 68.369
3.88 100.232 68.377
3.89 99.977 68.429
3.90 99.211 68.332
3.91 98.970 68.271
3.92 98.105 68.289
3.93 98.088 68.251
3.94 99.043 68.251
3.95 99.688 68.361
3.96 99.657 68.419
3.97 99.086 68.234
3.98 98.351 67.945
3.99 97.076 67.652
4.00 96.604 67.483
4.01 96.238 67.560
4.02 95.610 67.491
4.03 98.157 67.095
4.04 99.030 66.395
4.05 100.477 65.076
4.06 --undefined-- 62.033
4.07 --undefined-- 55.842
4.08 --undefined-- 46.169
4.09 --undefined-- 38.829
4.10 --undefined-- 36.571
4.11 --undefined-- 36.320
4.12 --undefined-- 36.228
4.13 --undefined-- 37.627
4.14 --undefined-- 49.357
4.15 --undefined-- 60.685
4.16 --undefined-- 67.705
4.17 --undefined-- 70.940
4.18 122.061 71.216
4.19 121.225 69.513
4.20 --undefined-- 66.818
4.21 --undefined-- 63.108
4.22 --undefined-- 58.803
4.23 --undefined-- 54.256
4.24 --undefined-- 49.538
4.25 --undefined-- 47.145
4.26 --undefined-- 47.895
4.27 104.820 50.903
4.28 109.426 53.082
4.29 107.156 54.850
4.30 110.668 56.140
4.31 107.465 56.572
4.32 107.502 56.829
4.33 107.596 57.605
4.34 107.546 58.141
4.35 106.845 58.010
4.36 106.547 57.614
4.37 106.531 57.232
4.38 106.584 57.044
4.39 106.720 57.265
4.40 105.739 57.647
4.41 103.403 57.842
4.42 --undefined-- 57.265
4.43 --undefined-- 55.332
4.44 --undefined-- 53.982
4.45 --undefined-- 54.618
4.46 --undefined-- 54.726
4.47 --undefined-- 54.832
4.48 --undefined-- 56.133
4.49 --undefined-- 57.973
4.50 --undefined-- 62.958
4.51 --undefined-- 68.077
4.52 --undefined-- 70.643
4.53 110.115 71.009
4.54 109.191 70.160
4.55 114.886 69.275
4.56 119.224 68.952
4.57 124.468 68.819
4.58 129.438 68.427
4.59 137.475 67.712
4.60 139.794 66.825
4.61 141.392 65.365
4.62 141.958 62.606
4.63 153.235 59.502
4.64 155.384 58.896
4.65 154.266 59.470
4.66 151.963 59.797
4.67 147.848 60.318
4.68 144.261 63.801
4.69 --undefined-- 68.444
4.70 127.223 70.975
4.71 123.522 71.673
4.72 --undefined-- 71.599
4.73 --undefined-- 70.854
4.74 --undefined-- 69.314
4.75 --undefined-- 67.478
4.76 --undefined-- 65.601
4.77 85.217 63.389
4.78 85.855 60.429
4.79 87.327 56.711
4.80 92.366 53.699
4.81 94.455 52.741
4.82 95.543 53.249
4.83 95.946 53.952
4.84 98.134 54.589
4.85 102.029 56.389
4.86 106.977 59.770
4.87 113.855 63.448
4.88 116.120 66.374
4.89 117.133 68.147
4.90 117.669 68.470
4.91 122.853 66.913
4.92 119.088 62.958
4.93 --undefined-- 56.132
4.94 --undefined-- 48.567
4.95 --undefined-- 50.363
4.96 --undefined-- 55.441
4.97 --undefined-- 59.113
4.98 --undefined-- 61.046
4.99 --undefined-- 61.203
5.00 --undefined-- 60.791
5.01 --undefined-- 62.920
5.02 --undefined-- 66.263
5.03 --undefined-- 67.605
5.04 146.751 66.511
5.05 144.778 63.852
5.06 143.799 61.728
5.07 141.816 61.231
5.08 139.015 60.832
5.09 135.186 60.141
5.10 132.765 59.450
5.11 130.416 59.164
5.12 127.257 58.959
5.13 125.769 58.132
5.14 --undefined-- 57.956
5.15 --undefined-- 59.965
5.16 --undefined-- 61.793
5.17 --undefined-- 62.420
5.18 --undefined-- 61.623
5.19 --undefined-- 60.487
5.20 --undefined-- 60.067
5.21 --undefined-- 59.654
5.22 --undefined-- 58.324
5.23 --undefined-- 57.578
5.24 --undefined-- 61.497
5.25 113.832 65.778
5.26 119.993 68.074
5.27 116.440 68.590
5.28 113.020 68.067
5.29 112.261 67.697
5.30 111.773 67.604
5.31 111.364 67.439
5.32 110.787 67.196
5.33 109.595 67.042
5.34 107.852 67.032
5.35 106.422 67.107
5.36 105.304 67.315
5.37 104.366 67.479
5.38 103.052 66.880
5.39 100.929 64.930
5.40 99.221 62.282
5.41 97.879 60.270
5.42 95.324 58.716
5.43 95.190 56.859
5.44 91.860 54.635
5.45 89.087 51.995
5.46 --undefined-- 52.014
5.47 --undefined-- 56.481
5.48 --undefined-- 58.918
5.49 --undefined-- 58.628
5.50 --undefined-- 58.098
5.51 --undefined-- 56.542
5.52 --undefined-- 53.146
5.53 --undefined-- 51.528
5.54 --undefined-- 49.836
5.55 --undefined-- 48.018
5.56 --undefined-- 48.310
5.57 --undefined-- 48.472
5.58 --undefined-- 49.703
5.59 --undefined-- 50.942
5.60 --undefined-- 51.382
5.61 --undefined-- 51.682
5.62 --undefined-- 50.931
5.63 --undefined-- 50.090
5.64 --undefined-- 49.996
5.65 --undefined-- 50.486
5.66 --undefined-- 51.028
5.67 --undefined-- 51.723
5.68 103.830 54.316
5.69 104.670 57.464
5.70 108.900 62.159
5.71 113.940 66.041
5.72 114.210 67.731
5.73 114.757 67.707
5.74 115.952 66.750
5.75 117.888 65.642
5.76 118.873 64.706
5.77 119.110 63.184
5.78 118.041 60.699
5.79 115.299 57.778
5.80 --undefined-- 55.078
5.81 --undefined-- 52.921
5.82 --undefined-- 50.356
5.83 --undefined-- 46.466
5.84 --undefined-- 42.372
5.85 --undefined-- 39.935
5.86 --undefined-- 38.767
5.87 --undefined-- 37.794
5.88 --undefined-- 36.941
5.89 --undefined-- 36.586
5.90 --undefined-- 37.010
5.91 --undefined-- 37.855
5.92 --undefined-- 38.251
5.93 --undefined-- 38.210
5.94 --undefined-- 38.351
5.95 --undefined-- 38.296
5.96 --undefined-- 38.297
5.97 --undefined-- 38.233
5.98 --undefined-- 38.001
5.99 --undefined-- 37.792
6.00 --undefined-- 37.767
6.01 --undefined-- 37.878
6.02 --undefined-- 38.322
6.03 --undefined-- 38.699
6.04 --undefined-- 38.623
6.05 --undefined-- 38.462
6.06 --undefined-- 38.276
6.07 --undefined-- 38.038
6.08 --undefined-- 38.146
6.09 --undefined-- 38.428
6.10 --undefined-- 38.423
6.11 --undefined-- 38.174
6.12 --undefined-- 38.246
6.13 --undefined-- 39.160
6.14 --undefined-- 39.819
6.15 --undefined-- 39.602
6.16 --undefined-- 39.222
6.17 --undefined-- 38.979
6.18 --undefined-- 38.797
6.19 --undefined-- 38.792
6.20 --undefined-- 38.514
6.21 --undefined-- 38.438
6.22 --undefined-- 38.937
6.23 --undefined-- 39.492
6.24 --undefined-- 39.705
6.25 --undefined-- 39.578
6.26 --undefined-- 39.611
6.27 --undefined-- 39.619
6.28 --undefined-- 39.085
6.29 --undefined-- 38.980
6.30 --undefined-- 41.039
6.31 --undefined-- 44.146
6.32 --undefined-- 47.737
6.33 --undefined-- 52.870
6.34 --undefined-- 59.629
6.35 --undefined-- 65.554
6.36 --undefined-- 69.077
6.37 --undefined-- 70.628
6.38 122.389 71.040
6.39 121.715 70.724
6.40 121.590 70.164
6.41 123.575 69.973
6.42 124.570 70.223
6.43 124.960 70.379
6.44 125.706 --undefined--
6.45 125.227 --undefined--
6.46 --undefined-- --undefined--
6.47 --undefined-- --undefined--
