Time Pitch Intensity
0.01 --undefined-- --undefined--
0.02 --undefined-- --undefined--
0.03 --undefined-- --undefined--
0.04 90.469 --undefined--
0.05 88.136 63.608
0.06 87.623 62.682
0.07 86.931 60.155
0.08 --undefined-- 56.250
0.09 --undefined-- 52.670
0.10 --undefined-- 52.484
0.11 --undefined-- 53.575
0.12 --undefined-- 54.452
0.13 --undefined-- 55.525
0.14 --undefined-- 56.011
0.15 --undefined-- 58.766
0.16 --undefined-- 63.644
0.17 93.565 66.262
0.18 96.601 66.494
0.19 93.834 65.250
0.20 92.732 63.127
0.21 89.715 60.175
0.22 89.558 55.923
0.23 --undefined-- 49.854
0.24 --undefined-- 42.628
0.25 --undefined-- 39.013
0.26 --undefined-- 38.800
0.27 --undefined-- 38.670
0.28 --undefined-- 38.743
0.29 --undefined-- 38.706
0.30 --undefined-- 38.613
0.31 --undefined-- 38.277
0.32 --undefined-- 37.548
0.33 --undefined-- 37.345
0.34 --undefined-- 37.563
0.35 --undefined-- 37.850
0.36 --undefined-- 38.183
0.37 --undefined-- 38.312
0.38 --undefined-- 38.506
0.39 --undefined-- 39.059
0.40 --undefined-- 42.463
0.41 --undefined-- 51.989
0.42 --undefined-- 58.664
0.43 --undefined-- 63.240
0.44 --undefined-- 67.616
0.45 --undefined-- 70.416
0.46 --undefined-- 71.135
0.47 --undefined-- 70.460
0.48 --undefined-- 69.297
0.49 81.504 67.904
0.50 88.683 67.187
0.51 96.546 67.453
0.52 98.465 66.816
0.53 99.528 64.559
0.54 --undefined-- 61.024
0.55 --undefined-- 56.711
0.56 100.858 54.361
0.57 100.631 54.209
0.58 100.998 54.060
0.59 100.528 54.028
0.60 100.087 54.195
0.61 100.102 54.607
0.62 99.690 55.060
0.63 100.533 55.425
0.64 101.381 56.034
0.65 100.726 56.709
0.66 100.734 57.126
0.67 99.950 57.130
0.68 99.249 56.915
0.69 98.368 56.977
0.70 97.799 57.064
0.71 97.238 56.830
0.72 96.606 56.471
0.73 97.355 56.372
0.74 98.375 56.685
0.75 98.952 57.390
0.76 98.251 58.036
0.77 97.500 58.288
0.78 96.589 58.249
0.79 96.410 58.123
0.80 96.369 58.049
0.81 95.604 57.744
0.82 91.966 57.253
0.83 93.258 59.424
0.84 93.931 63.562
0.85 92.330 65.851
0.86 89.340 65.952
0.87 89.061 64.536
0.88 86.831 62.450
0.89 83.927 60.124
0.90 81.105 57.683
0.91 80.617 56.015
0.92 80.509 56.226
0.93 80.996 57.802
0.94 81.070 59.580
0.95 80.428 60.372
0.96 80.378 59.514
0.97 78.625 56.715
0.98 81.197 53.339
0.99 83.678 53.366
1.00 84.100 54.314
1.01 85.114 54.598
1.02 85.421 54.644
1.03 83.534 54.634
1.04 83.758 55.353
1.05 84.818 57.298
1.06 86.060 58.357
1.07 86.498 58.037
1.08 86.261 57.487
1.09 86.437 57.087
1.10 86.747 56.347
1.11 83.923 55.755
1.12 82.262 56.445
1.13 81.059 57.745
1.14 82.456 58.846
1.15 83.518 60.432
1.16 83.760 63.360
1.17 83.499 66.605
1.18 83.640 68.759
1.19 83.367 69.548
1.20 82.894 69.455
1.21 82.523 68.743
1.22 81.684 67.701
1.23 80.484 66.973
1.24 79.585 66.346
1.25 79.199 65.575
1.26 78.686 64.823
1.27 76.505 63.689
1.28 76.350 62.472
1.29 --undefined-- 62.111
1.30 --undefined-- 62.467
1.31 --undefined-- 62.433
1.32 --undefined-- 62.302
1.33 --undefined-- 62.650
1.34 --undefined-- 62.997
1.35 --undefined-- 62.894
1.36 --undefined-- 62.704
1.37 --undefined-- 62.905
1.38 75.095 63.347
1.39 77.008 63.069
1.40 82.136 62.054
1.41 81.754 61.606
1.42 83.810 61.912
1.43 84.420 62.670
1.44 84.062 63.116
1.45 82.670 62.706
1.46 82.687 61.324
1.47 84.714 59.210
1.48 84.195 56.728
1.49 85.810 54.520
1.50 85.186 53.558
1.51 84.642 53.551
1.52 85.169 54.436
1.53 85.562 57.198
1.54 90.190 61.047
1.55 92.529 64.355
1.56 92.821 66.432
1.57 92.228 67.252
1.58 --undefined-- 67.106
1.59 --undefined-- 66.032
1.60 76.831 64.208
1.61 76.734 62.766
1.62 77.288 61.523
1.63 82.844 59.859
1.64 82.468 57.584
1.65 80.627 54.728
1.66 80.877 52.694
1.67 83.277 52.358
1.68 81.106 52.316
1.69 81.857 52.167
1.70 80.449 52.128
1.71 81.727 52.220
1.72 82.081 52.612
1.73 82.962 53.208
1.74 82.792 53.414
1.75 83.293 53.237
1.76 83.725 53.005
1.77 82.755 52.610
1.78 82.431 52.107
1.79 80.721 51.705
1.80 80.358 51.737
1.81 79.376 51.935
1.82 79.321 52.016
1.83 79.226 52.155
1.84 78.127 52.316
1.85 81.146 52.638
1.86 79.244 53.419
1.87 80.067 55.654
1.88 --undefined-- 57.982
1.89 --undefined-- 58.803
1.90 --undefined-- 58.026
1.91 --undefined-- 56.280
1.92 --undefined-- 55.326
1.93 --undefined-- 55.455
1.94 --undefined-- 56.603
1.95 --undefined-- 59.343
1.96 --undefined-- 62.488
1.97 91.245 64.800
1.98 91.666 66.005
1.99 90.367 66.470
2.00 89.527 66.737
2.01 90.791 66.912
2.02 91.354 66.837
2.03 94.475 66.461
2.04 97.463 65.603
2.05 100.969 64.413
2.06 106.726 63.600
2.07 110.486 63.317
2.08 110.733 63.002
2.09 111.564 62.426
2.10 112.379 61.602
2.11 113.814 60.662
2.12 114.576 59.276
2.13 119.068 57.865
2.14 123.332 57.231
2.15 130.696 57.085
2.16 131.156 56.966
2.17 135.593 56.834
2.18 135.750 56.405
2.19 135.674 54.482
2.20 --undefined-- 51.810
2.21 --undefined-- 51.689
2.22 --undefined-- 52.853
2.23 --undefined-- 53.180
2.24 --undefined-- 52.244
2.25 --undefined-- 50.108
2.26 --undefined-- 47.669
2.27 --undefined-- 46.736
2.28 --undefined-- 47.301
2.29 --undefined-- 48.319
2.30 --undefined-- 48.481
2.31 --undefined-- 48.319
2.32 --undefined-- 48.101
2.33 --undefined-- 47.181
2.34 --undefined-- 45.896
2.35 --undefined-- 45.424
2.36 --undefined-- 46.334
2.37 --undefined-- 46.734
2.38 --undefined-- 45.681
2.39 --undefined-- 44.120
2.40 --undefined-- 43.159
2.41 --undefined-- 42.540
2.42 --undefined-- 42.178
2.43 --undefined-- 42.874
2.44 --undefined-- 43.624
2.45 --undefined-- 43.819
2.46 --undefined-- 43.693
2.47 --undefined-- 43.025
2.48 --undefined-- 42.203
2.49 --undefined-- 41.947
2.50 --undefined-- 42.263
2.51 --undefined-- 44.598
2.52 --undefined-- 49.548
2.53 --undefined-- 53.986
2.54 --undefined-- 56.496
2.55 --undefined-- 57.755
2.56 --undefined-- 62.434
2.57 --undefined-- 67.389
2.58 --undefined-- 69.303
2.59 125.868 68.926
2.60 125.702 68.207
2.61 124.256 68.135
2.62 124.509 67.955
2.63 124.388 67.652
2.64 119.428 67.331
2.65 119.310 66.973
2.66 114.406 66.392
2.67 110.367 65.287
2.68 107.282 64.245
2.69 103.091 63.578
2.70 98.405 62.633
2.71 --undefined-- 60.991
2.72 --undefined-- 59.022
2.73 --undefined-- 58.233
2.74 --undefined-- 58.209
2.75 --undefined-- 57.925
2.76 --undefined-- 57.526
2.77 --undefined-- 57.601
2.78 --undefined-- 57.698
2.79 --undefined-- 57.488
2.80 --undefined-- 57.794
2.81 --undefined-- 57.874
2.82 --undefined-- 57.422
2.83 --undefined-- 59.605
2.84 --undefined-- 65.921
2.85 150.412 70.135
2.86 144.424 71.783
2.87 139.049 72.142
2.88 136.468 71.858
2.89 134.111 70.872
2.90 133.433 69.667
2.91 133.890 68.920
2.92 133.614 68.526
2.93 132.296 67.991
2.94 125.829 66.772
2.95 126.124 65.262
2.96 126.361 64.132
2.97 124.449 63.138
2.98 124.280 62.562
2.99 123.232 62.378
3.00 122.129 61.973
3.01 120.840 61.426
3.02 120.617 61.312
3.03 120.242 61.963
3.04 126.398 62.643
3.05 121.274 62.259
3.06 120.526 61.285
3.07 119.495 60.472
3.08 117.734 59.509
3.09 117.413 58.357
3.10 118.560 57.719
3.11 117.257 57.920
3.12 115.610 58.372
3.13 113.283 58.853
3.14 111.103 59.237
3.15 108.730 59.532
3.16 106.787 60.029
3.17 105.534 61.545
3.18 105.994 64.695
3.19 105.254 67.374
3.20 103.478 68.388
3.21 102.113 68.506
3.22 101.315 68.403
3.23 101.365 68.158
3.24 100.477 67.756
3.25 98.896 66.874
3.26 97.778 65.424
3.27 96.163 63.719
3.28 95.584 62.315
3.29 95.299 61.782
3.30 95.159 62.005
3.31 94.856 61.990
3.32 95.760 60.940
3.33 97.043 58.851
3.34 95.677 56.403
3.35 93.984 54.908
3.36 94.059 55.946
3.37 95.838 58.994
3.38 97.843 61.870
3.39 98.554 63.055
3.40 95.238 62.424
3.41 94.488 60.422
3.42 --undefined-- 57.202
3.43 --undefined-- 56.390
3.44 --undefined-- 59.065
3.45 --undefined-- 60.565
3.46 --undefined-- 60.805
3.47 --undefined-- 61.100
3.48 --undefined-- 61.220
3.49 --undefined-- 61.116
3.50 --undefined-- 60.394
3.51 --undefined-- 59.371
3.52 --undefined-- 59.863
3.53 --undefined-- 59.144
3.54 --undefined-- 56.633
3.55 --undefined-- 60.545
3.56 --undefined-- 65.796
3.57 104.209 68.675
3.58 102.760 69.822
3.59 100.757 69.814
3.60 99.557 69.135
3.61 98.358 68.120
3.62 97.304 67.007
3.63 96.370 66.134
3.64 95.555 65.445
3.65 95.403 64.579
3.66 95.598 63.136
3.67 97.011 60.743
3.68 96.908 57.370
3.69 96.807 54.204
3.70 96.391 53.357
3.71 96.943 53.854
3.72 97.453 54.502
3.73 96.355 55.011
3.74 95.272 55.243
3.75 94.626 55.363
3.76 92.165 57.121
3.77 --undefined-- 60.817
3.78 --undefined-- 63.149
3.79 --undefined-- 62.803
3.80 --undefined-- 60.181
3.81 --undefined-- 57.469
3.82 --undefined-- 53.643
3.83 --undefined-- 46.439
3.84 --undefined-- 40.516
3.85 --undefined-- 39.556
3.86 --undefined-- 39.360
3.87 --undefined-- 40.402
3.88 --undefined-- 42.802
3.89 --undefined-- 44.633
3.90 --undefined-- 45.609
3.91 --undefined-- 46.982
3.92 --undefined-- 52.680
3.93 --undefined-- 59.686
3.94 122.334 63.826
3.95 103.060 65.261
3.96 106.592 65.193
3.97 105.085 65.078
3.98 101.729 64.987
3.99 99.117 63.752
4.00 97.874 61.191
4.01 97.480 59.514
4.02 96.477 60.673
4.03 94.956 62.909
4.04 92.215 63.881
4.05 --undefined-- 62.503
4.06 --undefined-- 57.967
4.07 --undefined-- 49.840
4.08 --undefined-- 41.068
4.09 --undefined-- 39.090
4.10 --undefined-- 38.534
4.11 --undefined-- 39.461
4.12 --undefined-- 48.629
4.13 --undefined-- 59.118
4.14 --undefined-- 65.585
4.15 --undefined-- 68.119
4.16 102.151 67.675
4.17 104.660 65.334
4.18 --undefined-- 61.508
4.19 --undefined-- 55.601
4.20 --undefined-- 46.781
4.21 --undefined-- 38.269
4.22 --undefined-- 35.520
4.23 --undefined-- 34.959
4.24 --undefined-- 35.592
4.25 --undefined-- 36.505
4.26 --undefined-- 42.165
4.27 --undefined-- 48.670
4.28 --undefined-- 51.460
4.29 --undefined-- 52.733
4.30 --undefined-- 55.392
4.31 --undefined-- 57.259
4.32 86.463 57.505
4.33 88.238 57.067
4.34 84.729 55.854
4.35 80.774 53.553
4.36 79.859 51.263
4.37 80.162 50.085
4.38 80.130 49.238
4.39 78.664 48.477
4.40 77.941 47.306
4.41 --undefined-- 45.448
4.42 --undefined-- 43.238
4.43 --undefined-- 41.790
4.44 --undefined-- 44.634
4.45 --undefined-- 51.214
4.46 --undefined-- 56.879
4.47 --undefined-- 59.598
4.48 --undefined-- 61.792
4.49 --undefined-- 66.443
4.50 --undefined-- 69.318
4.51 --undefined-- 69.394
4.52 95.745 67.663
4.53 96.052 65.204
4.54 97.452 62.414
4.55 101.892 59.347
4.56 101.708 56.380
4.57 104.024 55.232
4.58 105.373 55.722
4.59 103.896 56.395
4.60 101.243 56.434
4.61 98.635 55.542
4.62 96.876 54.244
4.63 96.629 53.468
4.64 96.214 53.254
4.65 96.072 53.256
4.66 96.383 53.431
4.67 96.569 53.572
4.68 97.101 53.522
4.69 98.280 53.593
4.70 98.179 53.251
4.71 --undefined-- 51.296
4.72 --undefined-- 47.102
4.73 --undefined-- 42.087
4.74 --undefined-- 47.704
4.75 --undefined-- 54.321
4.76 --undefined-- 57.187
4.77 --undefined-- 60.277
4.78 --undefined-- 65.059
4.79 --undefined-- 67.957
4.80 108.548 68.829
4.81 108.414 68.524
4.82 102.913 68.109
4.83 97.340 68.134
4.84 98.059 68.280
4.85 99.301 68.405
4.86 97.414 68.341
4.87 95.675 68.071
4.88 95.210 67.804
4.89 94.203 67.617
4.90 92.342 67.453
4.91 91.442 67.248
4.92 90.942 66.962
4.93 91.210 66.578
4.94 89.327 66.144
4.95 96.339 65.576
4.96 97.362 64.652
4.97 98.576 62.998
4.98 96.722 60.153
4.99 93.002 56.208
5.00 92.975 51.669
5.01 --undefined-- 47.689
5.02 --undefined-- 47.367
5.03 --undefined-- 49.855
5.04 --undefined-- 54.906
5.05 --undefined-- 59.192
5.06 --undefined-- 60.706
5.07 --undefined-- 61.427
5.08 --undefined-- 61.089
5.09 --undefined-- 58.910
5.10 --undefined-- 57.386
5.11 --undefined-- 54.823
5.12 --undefined-- 50.347
5.13 --undefined-- 49.093
5.14 --undefined-- 48.177
5.15 --undefined-- 44.794
5.16 --undefined-- 40.196
5.17 --undefined-- 39.621
5.18 --undefined-- 42.987
5.19 --undefined-- 46.015
5.20 --undefined-- 47.872
5.21 --undefined-- 49.453
5.22 --undefined-- 51.115
5.23 --undefined-- 52.858
5.24 --undefined-- 54.548
5.25 --undefined-- 54.544
5.26 --undefined-- 52.578
5.27 --undefined-- 50.496
5.28 --undefined-- 49.776
5.29 --undefined-- 49.509
5.30 --undefined-- 49.192
5.31 --undefined-- 49.094
5.32 --undefined-- 49.208
5.33 --undefined-- 48.838
5.34 --undefined-- --undefined--
5.35 --undefined-- --undefined--
5.36 --undefined-- --undefined--
5.37 --undefined-- --undefined--
