Time Pitch Intensity
0.01 --undefined-- --undefined--
0.02 215.058 --undefined--
0.03 218.131 --undefined--
0.04 215.803 --undefined--
0.05 209.510 74.358
0.06 203.790 73.888
0.07 196.125 73.299
0.08 185.669 72.711
0.09 173.469 71.968
0.10 161.816 70.966
0.11 152.983 69.930
0.12 146.083 69.268
0.13 144.574 69.159
0.14 141.538 69.304
0.15 139.667 69.342
0.16 139.313 69.018
0.17 141.071 68.293
0.18 141.811 67.347
0.19 141.711 66.174
0.20 142.617 64.512
0.21 142.463 62.731
0.22 147.184 62.518
0.23 154.254 64.909
0.24 157.245 67.757
0.25 160.010 69.568
0.26 161.152 70.313
0.27 163.131 70.447
0.28 165.732 70.394
0.29 168.685 70.394
0.30 171.914 70.519
0.31 174.283 70.591
0.32 175.236 70.375
0.33 174.309 69.733
0.34 175.381 68.435
0.35 182.108 65.936
0.36 179.851 62.309
0.37 186.885 59.176
0.38 187.408 57.715
0.39 172.558 57.611
0.40 172.076 59.300
0.41 178.930 62.581
0.42 190.351 65.826
0.43 179.490 67.778
0.44 170.408 68.445
0.45 158.833 68.528
0.46 148.534 68.680
0.47 143.103 68.947
0.48 142.795 69.067
0.49 143.889 68.938
0.50 146.182 68.701
0.51 149.928 68.737
0.52 152.053 69.197
0.53 156.804 69.568
0.54 161.195 69.685
0.55 168.758 69.854
0.56 174.572 69.922
0.57 179.454 69.246
0.58 182.229 67.084
0.59 182.618 62.800
0.60 --undefined-- 55.942
0.61 --undefined-- 46.533
0.62 --undefined-- 38.804
0.63 --undefined-- 35.720
0.64 --undefined-- 36.412
0.65 --undefined-- 44.788
0.66 --undefined-- 51.580
0.67 --undefined-- 54.907
0.68 --undefined-- 60.378
0.69 --undefined-- 68.022
0.70 246.223 72.819
0.71 247.864 75.065
0.72 246.951 75.802
0.73 245.386 75.685
0.74 242.434 75.145
0.75 241.376 75.515
0.76 247.170 76.710
0.77 249.637 77.525
0.78 250.637 77.911
0.79 249.991 78.105
0.80 247.783 78.237
0.81 243.437 78.087
0.82 236.925 77.352
0.83 228.417 76.062
0.84 219.066 74.551
0.85 206.720 72.970
0.86 187.051 71.101
0.87 166.268 69.532
0.88 152.871 69.021
0.89 145.999 69.217
0.90 141.698 69.749
0.91 135.227 70.268
0.92 129.182 70.508
0.93 126.897 70.472
0.94 127.171 70.159
0.95 128.668 69.607
0.96 129.843 68.899
0.97 130.477 67.956
0.98 130.579 66.381
0.99 130.095 63.490
1.00 130.827 58.511
1.01 --undefined-- 50.901
1.02 --undefined-- 41.367
1.03 --undefined-- 40.054
1.04 --undefined-- 51.286
1.05 --undefined-- 60.882
1.06 --undefined-- 66.504
1.07 --undefined-- 68.752
1.08 141.819 68.812
1.09 139.105 68.377
1.10 138.820 68.454
1.11 139.687 68.751
1.12 141.033 68.806
1.13 142.748 68.576
1.14 143.231 68.285
1.15 146.965 68.116
1.16 152.581 68.051
1.17 161.136 67.771
1.18 168.660 66.725
1.19 170.461 64.186
1.20 175.995 59.843
1.21 --undefined-- 53.529
1.22 --undefined-- 44.423
1.23 --undefined-- 35.234
1.24 --undefined-- 38.023
1.25 --undefined-- 43.805
1.26 --undefined-- 48.568
1.27 --undefined-- 52.144
1.28 --undefined-- 58.487
1.29 247.131 64.763
1.30 244.672 68.358
1.31 241.696 69.703
1.32 238.166 69.497
1.33 233.176 68.251
1.34 231.373 66.030
1.35 231.814 62.322
1.36 --undefined-- 56.262
1.37 --undefined-- 47.975
1.38 --undefined-- 41.710
1.39 --undefined-- 39.926
1.40 --undefined-- 42.316
1.41 --undefined-- 45.632
1.42 --undefined-- 48.692
1.43 --undefined-- 50.958
1.44 --undefined-- 52.471
1.45 --undefined-- 53.308
1.46 --undefined-- 53.176
1.47 --undefined-- 52.122
1.48 --undefined-- 50.640
1.49 --undefined-- 49.373
1.50 --undefined-- 54.131
1.51 181.806 61.144
1.52 177.662 64.978
1.53 163.339 66.130
1.54 149.105 66.056
1.55 137.039 66.237
1.56 131.519 66.825
1.57 130.459 67.375
1.58 130.925 68.032
1.59 131.845 68.861
1.60 132.805 69.485
1.61 133.161 69.739
1.62 132.754 69.750
1.63 132.567 69.678
1.64 130.754 69.656
1.65 131.002 69.770
1.66 131.880 69.909
1.67 131.435 69.937
1.68 131.497 69.806
1.69 131.766 69.560
1.70 131.329 69.322
1.71 130.696 69.072
1.72 129.077 68.580
1.73 128.412 67.656
1.74 132.287 66.438
1.75 --undefined-- 64.810
1.76 --undefined-- 61.882
1.77 --undefined-- 58.064
1.78 --undefined-- 54.897
1.79 --undefined-- 51.259
1.80 --undefined-- 45.956
1.81 --undefined-- 39.337
1.82 --undefined-- 35.540
1.83 --undefined-- 34.047
1.84 --undefined-- 33.164
1.85 --undefined-- 33.459
1.86 --undefined-- 33.565
1.87 --undefined-- 32.347
1.88 --undefined-- 29.918
1.89 --undefined-- 28.371
1.90 --undefined-- 28.839
1.91 --undefined-- 30.614
1.92 --undefined-- 32.481
1.93 --undefined-- 34.158
1.94 --undefined-- 37.520
1.95 --undefined-- 42.149
1.96 --undefined-- 46.142
1.97 --undefined-- 48.903
1.98 --undefined-- 50.963
1.99 --undefined-- 54.953
2.00 --undefined-- 62.647
2.01 208.579 68.604
2.02 201.579 71.743
2.03 183.167 73.034
2.04 181.946 73.397
2.05 183.561 73.279
2.06 191.944 72.994
2.07 196.983 72.911
2.08 201.094 73.158
2.09 206.663 73.406
2.10 214.916 73.169
2.11 226.923 72.498
2.12 228.085 71.355
2.13 220.150 69.327
2.14 216.733 66.419
2.15 228.582 62.506
2.16 --undefined-- 56.462
2.17 --undefined-- 48.411
2.18 --undefined-- 48.049
2.19 --undefined-- 55.946
2.20 --undefined-- 63.616
2.21 240.910 69.159
2.22 218.437 71.879
2.23 196.952 72.477
2.24 190.436 72.068
2.25 184.044 71.157
2.26 179.408 70.118
2.27 177.390 69.546
2.28 178.044 69.664
2.29 181.177 70.027
2.30 186.455 70.111
2.31 189.783 69.928
2.32 197.564 70.688
2.33 211.414 72.181
2.34 214.873 73.001
2.35 219.104 72.846
2.36 221.243 71.256
2.37 223.830 67.512
2.38 227.096 61.096
2.39 229.911 53.485
2.40 227.460 50.018
2.41 --undefined-- 48.671
2.42 --undefined-- 53.526
2.43 206.117 61.759
2.44 197.500 66.631
2.45 167.956 68.630
2.46 154.717 68.969
2.47 147.100 68.280
2.48 138.963 66.176
2.49 128.841 62.010
2.50 --undefined-- 55.347
2.51 --undefined-- 46.277
2.52 --undefined-- 41.595
2.53 --undefined-- 48.398
2.54 --undefined-- 58.386
2.55 197.549 65.304
2.56 183.741 68.724
2.57 177.626 69.741
2.58 175.831 69.641
2.59 175.035 69.261
2.60 174.541 69.037
2.61 173.562 69.045
2.62 172.749 69.161
2.63 172.066 69.331
2.64 171.393 69.480
2.65 171.101 69.781
2.66 171.196 70.264
2.67 171.380 70.666
2.68 171.173 70.811
2.69 171.497 70.769
2.70 171.677 70.848
2.71 171.567 71.250
2.72 172.432 71.719
2.73 173.619 71.949
2.74 175.118 71.845
2.75 173.808 71.305
2.76 --undefined-- 69.878
2.77 --undefined-- 66.800
2.78 --undefined-- 61.136
2.79 --undefined-- 51.949
2.80 --undefined-- 40.554
2.81 --undefined-- 34.706
2.82 --undefined-- 35.758
2.83 --undefined-- 40.828
2.84 --undefined-- 44.986
2.85 --undefined-- 46.311
2.86 --undefined-- 46.665
2.87 --undefined-- 47.769
2.88 --undefined-- 48.332
2.89 --undefined-- 47.532
2.90 --undefined-- 47.713
2.91 --undefined-- 57.185
2.92 262.655 66.588
2.93 257.860 72.157
2.94 255.926 74.891
2.95 252.547 75.968
2.96 249.855 76.204
2.97 249.385 75.849
2.98 251.003 75.177
2.99 254.024 74.619
3.00 257.311 74.357
3.01 259.612 74.120
3.02 260.444 73.589
3.03 255.476 72.451
3.04 244.198 69.950
3.05 239.217 65.230
3.06 --undefined-- 57.735
3.07 --undefined-- 47.812
3.08 --undefined-- 41.619
3.09 --undefined-- 42.118
3.10 --undefined-- 43.997
3.11 --undefined-- 46.503
3.12 --undefined-- 48.848
3.13 --undefined-- 49.959
3.14 --undefined-- 50.107
3.15 --undefined-- 51.090
3.16 --undefined-- 52.960
3.17 --undefined-- 53.906
3.18 --undefined-- 53.558
3.19 --undefined-- 51.764
3.20 --undefined-- 49.276
3.21 --undefined-- 48.409
3.22 --undefined-- 50.611
3.23 168.659 56.624
3.24 161.045 61.004
3.25 155.952 63.130
3.26 155.725 64.063
3.27 156.509 64.642
3.28 158.822 65.226
3.29 160.773 65.906
3.30 164.034 66.724
3.31 168.247 67.655
3.32 171.025 68.500
3.33 173.386 68.913
3.34 175.825 68.342
3.35 176.910 66.179
3.36 182.044 61.964
3.37 200.515 55.437
3.38 --undefined-- 46.572
3.39 --undefined-- 39.377
3.40 --undefined-- 37.935
3.41 --undefined-- 37.840
3.42 --undefined-- 36.186
3.43 --undefined-- 33.093
3.44 --undefined-- 35.664
3.45 --undefined-- 45.952
3.46 --undefined-- 57.162
3.47 186.017 64.591
3.48 179.527 68.746
3.49 175.152 70.777
3.50 172.583 71.476
3.51 169.621 71.345
3.52 167.949 71.008
3.53 167.579 70.850
3.54 167.456 70.872
3.55 168.012 71.046
3.56 167.954 71.309
3.57 167.464 71.575
3.58 167.129 71.807
3.59 166.592 71.937
3.60 165.554 71.854
3.61 165.017 71.371
3.62 164.485 70.130
3.63 162.945 67.646
3.64 158.633 63.510
3.65 155.235 57.606
3.66 --undefined-- 49.864
3.67 --undefined-- 41.172
3.68 --undefined-- 45.702
3.69 --undefined-- 50.677
3.70 --undefined-- 51.842
3.71 --undefined-- 50.794
3.72 --undefined-- 55.555
3.73 188.860 63.396
3.74 184.076 68.026
3.75 175.230 69.954
3.76 162.596 70.191
3.77 155.402 69.302
3.78 153.362 66.923
3.79 129.718 62.257
3.80 132.033 55.035
3.81 --undefined-- 46.532
3.82 --undefined-- 48.837
3.83 --undefined-- 57.664
3.84 --undefined-- 63.695
3.85 158.186 66.725
3.86 152.770 67.487
3.87 148.379 67.166
3.88 143.971 66.637
3.89 142.223 65.930
3.90 139.929 64.440
3.91 138.222 61.269
3.92 --undefined-- 55.465
3.93 --undefined-- 46.398
3.94 --undefined-- 36.940
3.95 --undefined-- 32.679
3.96 --undefined-- 38.904
3.97 --undefined-- 47.094
3.98 --undefined-- 53.862
3.99 --undefined-- 61.004
4.00 167.415 65.685
4.01 159.405 67.508
4.02 153.179 67.759
4.03 151.885 67.838
4.04 151.649 68.086
4.05 151.162 68.315
4.06 150.936 68.441
4.07 151.385 68.584
4.08 151.925 68.769
4.09 151.861 68.903
4.10 152.033 68.895
4.11 152.157 68.764
4.12 152.398 68.567
4.13 152.719 68.303
4.14 153.129 67.905
4.15 154.040 67.294
4.16 153.492 66.082
4.17 151.491 63.609
4.18 151.376 59.035
4.19 --undefined-- 52.141
4.20 --undefined-- 47.214
4.21 --undefined-- 48.033
4.22 --undefined-- 46.933
4.23 --undefined-- 44.710
4.24 --undefined-- 43.350
4.25 --undefined-- 42.208
4.26 --undefined-- 44.744
4.27 --undefined-- 56.484
4.28 235.946 65.342
4.29 224.721 69.985
4.30 210.574 71.524
4.31 204.702 71.452
4.32 202.392 71.102
4.33 199.926 70.832
4.34 198.387 70.760
4.35 198.064 71.029
4.36 198.958 71.485
4.37 199.400 71.824
4.38 199.445 71.818
4.39 198.350 71.214
4.40 197.261 69.572
4.41 197.244 66.159
4.42 203.846 60.215
4.43 --undefined-- 50.694
4.44 --undefined-- 40.994
4.45 --undefined-- 40.775
4.46 --undefined-- 48.182
4.47 --undefined-- 59.465
4.48 228.327 66.484
4.49 213.434 69.869
4.50 203.461 70.835
4.51 198.374 70.821
4.52 196.716 70.731
4.53 195.705 70.593
4.54 195.045 70.360
4.55 193.835 70.132
4.56 192.243 70.031
4.57 191.635 70.280
4.58 192.892 70.864
4.59 193.058 71.434
4.60 192.342 71.848
4.61 190.951 72.118
4.62 189.418 72.186
4.63 186.981 71.909
4.64 183.972 71.264
4.65 180.902 70.357
4.66 176.293 69.342
4.67 174.560 68.892
4.68 172.580 69.201
4.69 169.864 69.770
4.70 167.392 70.306
4.71 165.571 71.026
4.72 163.925 72.167
4.73 162.214 73.142
4.74 159.535 73.392
4.75 155.181 72.988
4.76 150.948 72.389
4.77 147.134 71.809
4.78 142.455 71.382
4.79 137.697 71.092
4.80 133.265 70.386
4.81 129.915 68.646
4.82 --undefined-- 65.349
4.83 --undefined-- 59.888
4.84 --undefined-- 51.740
4.85 --undefined-- 41.543
4.86 --undefined-- 35.767
4.87 --undefined-- 34.494
4.88 --undefined-- 35.677
4.89 --undefined-- 35.591
4.90 --undefined-- 33.892
4.91 --undefined-- 31.926
4.92 --undefined-- 31.522
4.93 --undefined-- 31.879
4.94 --undefined-- 31.685
4.95 --undefined-- 31.399
4.96 --undefined-- 30.972
4.97 --undefined-- 31.052
4.98 --undefined-- 33.037
4.99 --undefined-- 34.855
5.00 --undefined-- 34.458
5.01 --undefined-- 32.855
5.02 --undefined-- 33.599
5.03 --undefined-- 34.492
5.04 --undefined-- 33.200
5.05 --undefined-- 32.515
5.06 --undefined-- 34.063
5.07 --undefined-- 33.942
5.08 --undefined-- 33.512
5.09 --undefined-- 33.414
5.10 --undefined-- 33.421
5.11 --undefined-- 33.580
5.12 --undefined-- 32.142
5.13 --undefined-- 31.464
5.14 --undefined-- 33.476
5.15 --undefined-- 33.832
5.16 --undefined-- 31.722
5.17 --undefined-- 30.128
5.18 --undefined-- 32.844
5.19 --undefined-- 35.015
5.20 --undefined-- 34.761
5.21 --undefined-- 32.617
5.22 --undefined-- 31.776
5.23 --undefined-- 32.530
5.24 --undefined-- 32.347
5.25 --undefined-- 32.365
5.26 --undefined-- 33.556
5.27 --undefined-- 33.857
5.28 --undefined-- 33.700
5.29 --undefined-- 32.684
5.30 --undefined-- 30.780
5.31 --undefined-- 31.037
5.32 --undefined-- 30.645
5.33 --undefined-- 29.468
5.34 --undefined-- 29.085
5.35 --undefined-- 31.356
5.36 --undefined-- 33.843
5.37 --undefined-- 33.914
5.38 --undefined-- 32.422
5.39 --undefined-- 31.202
5.40 --undefined-- 31.280
5.41 --undefined-- 31.631
5.42 --undefined-- 33.108
5.43 --undefined-- 34.249
5.44 --undefined-- 32.438
5.45 --undefined-- 29.175
5.46 --undefined-- 29.928
5.47 --undefined-- 31.297
5.48 --undefined-- 30.555
5.49 --undefined-- 28.441
5.50 --undefined-- 27.167
5.51 --undefined-- 28.646
5.52 --undefined-- 34.049
5.53 --undefined-- 43.780
5.54 --undefined-- 51.467
5.55 --undefined-- 59.327
5.56 --undefined-- 66.756
5.57 285.560 71.115
5.58 286.416 73.062
5.59 287.958 73.739
5.60 290.111 74.065
5.61 291.406 74.298
5.62 290.776 74.669
5.63 289.768 75.408
5.64 289.356 76.154
5.65 284.987 76.590
5.66 278.248 76.752
5.67 269.999 76.497
5.68 262.949 75.296
5.69 259.065 72.456
5.70 256.518 67.326
5.71 255.145 59.751
5.72 --undefined-- 56.761
5.73 277.651 65.060
5.74 250.069 70.751
5.75 238.470 73.797
5.76 231.685 75.136
5.77 225.835 75.393
5.78 221.454 75.148
5.79 218.166 75.147
5.80 215.672 75.643
5.81 212.875 76.197
5.82 209.440 76.332
5.83 204.338 75.997
5.84 199.491 75.660
5.85 197.150 75.564
5.86 196.436 75.381
5.87 197.098 74.929
5.88 198.762 74.322
5.89 201.270 73.660
5.90 204.020 73.054
5.91 205.612 72.376
5.92 205.390 70.969
5.93 204.032 67.612
5.94 199.152 61.329
5.95 --undefined-- 51.455
5.96 --undefined-- 41.236
5.97 --undefined-- 38.421
5.98 --undefined-- 36.656
5.99 --undefined-- 36.601
6.00 --undefined-- 49.242
6.01 --undefined-- 61.663
6.02 --undefined-- 69.452
6.03 235.016 73.548
6.04 236.679 75.193
6.05 237.683 75.710
6.06 239.156 75.983
6.07 240.505 76.242
6.08 242.123 76.497
6.09 243.645 76.723
6.10 243.462 76.650
6.11 241.412 --undefined--
6.12 239.177 --undefined--
6.13 --undefined-- --undefined--
6.14 --undefined-- --undefined--
