Time Pitch Intensity
0.01 --undefined-- --undefined--
0.02 129.681 --undefined--
0.03 128.472 --undefined--
0.04 126.118 --undefined--
0.05 123.246 74.793
0.06 119.579 73.709
0.07 111.912 72.534
0.08 105.967 71.397
0.09 104.754 71.003
0.10 105.352 71.356
0.11 106.164 71.760
0.12 106.575 71.989
0.13 108.247 72.244
0.14 110.687 72.959
0.15 111.160 74.230
0.16 109.120 75.121
0.17 108.893 74.629
0.18 106.397 72.340
0.19 96.630 68.678
0.20 113.228 65.098
0.21 104.329 62.620
0.22 100.099 61.655
0.23 105.106 61.621
0.24 113.119 60.600
0.25 131.888 58.385
0.26 --undefined-- 57.312
0.27 --undefined-- 59.921
0.28 --undefined-- 66.031
0.29 --undefined-- 73.115
0.30 --undefined-- 78.058
0.31 --undefined-- 80.648
0.32 136.133 81.496
0.33 134.588 81.279
0.34 132.166 80.642
0.35 131.627 80.081
0.36 131.361 79.589
0.37 131.629 78.841
0.38 133.755 77.455
0.39 133.459 75.218
0.40 128.554 72.074
0.41 116.368 67.934
0.42 103.008 62.569
0.43 --undefined-- 55.930
0.44 --undefined-- 50.020
0.45 --undefined-- 47.168
0.46 --undefined-- 45.725
0.47 --undefined-- 45.759
0.48 --undefined-- 45.376
0.49 --undefined-- 44.910
0.50 --undefined-- 45.258
0.51 --undefined-- 45.984
0.52 --undefined-- 46.922
0.53 --undefined-- 47.554
0.54 --undefined-- 46.838
0.55 --undefined-- 44.319
0.56 --undefined-- 41.290
0.57 --undefined-- 39.290
0.58 --undefined-- 37.518
0.59 --undefined-- 36.322
0.60 --undefined-- 37.899
0.61 --undefined-- 41.304
0.62 --undefined-- 45.233
0.63 --undefined-- 48.926
0.64 --undefined-- 55.580
0.65 --undefined-- 64.494
0.66 143.239 70.714
0.67 125.676 74.104
0.68 127.268 75.602
0.69 129.798 76.362
0.70 131.837 76.984
0.71 132.659 77.370
0.72 133.236 77.527
0.73 134.476 77.632
0.74 129.863 77.527
0.75 125.382 77.044
0.76 121.604 76.313
0.77 121.431 75.316
0.78 122.090 73.897
0.79 118.340 71.711
0.80 110.610 68.278
0.81 117.423 64.108
0.82 114.191 61.630
0.83 --undefined-- 63.401
0.84 --undefined-- 67.649
0.85 146.167 71.502
0.86 132.590 73.827
0.87 121.622 74.917
0.88 115.427 75.348
0.89 114.880 75.361
0.90 116.405 75.050
0.91 117.484 74.625
0.92 118.108 74.315
0.93 117.565 74.281
0.94 117.287 74.448
0.95 115.790 74.546
0.96 114.339 74.420
0.97 113.122 74.190
0.98 112.198 74.070
0.99 108.770 74.047
1.00 105.114 74.020
1.01 102.717 73.846
1.02 101.993 73.425
1.03 102.395 73.086
1.04 103.755 73.090
1.05 106.552 72.783
1.06 106.104 71.243
1.07 110.425 68.338
1.08 119.928 64.950
1.09 130.101 62.754
1.10 143.024 64.337
1.11 142.214 68.560
1.12 153.902 72.537
1.13 136.832 75.048
1.14 130.756 76.066
1.15 129.587 76.175
1.16 128.678 75.897
1.17 126.921 75.239
1.18 123.834 74.075
1.19 118.769 72.570
1.20 116.217 71.404
1.21 115.605 71.455
1.22 114.112 72.649
1.23 112.575 73.967
1.24 109.946 74.738
1.25 105.974 75.053
1.26 103.283 75.020
1.27 100.190 74.550
1.28 98.783 73.901
1.29 98.251 73.169
1.30 95.243 72.385
1.31 95.554 71.553
1.32 94.833 70.325
1.33 92.705 68.679
1.34 92.085 67.109
1.35 89.733 66.162
1.36 89.204 65.498
1.37 87.855 64.768
1.38 87.920 64.425
1.39 87.409 64.635
1.40 86.510 64.941
1.41 88.957 65.612
1.42 91.288 66.860
1.43 91.519 67.811
1.44 92.643 68.239
1.45 92.726 68.516
1.46 92.924 68.765
1.47 97.089 69.156
1.48 99.941 69.656
1.49 100.144 69.722
1.50 95.866 69.212
1.51 98.458 68.905
1.52 100.135 69.101
1.53 103.540 70.229
1.54 111.164 72.331
1.55 110.689 74.176
1.56 107.830 75.117
1.57 108.284 75.343
1.58 109.557 75.379
1.59 110.203 75.081
1.60 110.569 74.032
1.61 111.237 72.202
1.62 106.810 69.546
1.63 112.045 65.774
1.64 107.297 60.603
1.65 --undefined-- 54.234
1.66 --undefined-- 48.597
1.67 --undefined-- 46.718
1.68 --undefined-- 45.565
1.69 --undefined-- 43.569
1.70 --undefined-- 42.270
1.71 --undefined-- 42.333
1.72 --undefined-- 43.682
1.73 --undefined-- 45.364
1.74 --undefined-- 47.456
1.75 --undefined-- 48.380
1.76 --undefined-- 47.636
1.77 --undefined-- 46.897
1.78 --undefined-- 47.326
1.79 --undefined-- 47.955
1.80 --undefined-- 47.975
1.81 --undefined-- 47.308
1.82 --undefined-- 46.405
1.83 --undefined-- 45.747
1.84 --undefined-- 44.874
1.85 --undefined-- 43.871
1.86 --undefined-- 45.680
1.87 --undefined-- 52.933
1.88 --undefined-- 59.834
1.89 108.703 63.564
1.90 105.598 65.113
1.91 109.762 66.163
1.92 109.838 67.563
1.93 112.094 69.238
1.94 110.983 71.129
1.95 107.293 72.949
1.96 106.092 74.328
1.97 106.267 74.960
1.98 108.369 74.418
1.99 103.175 72.536
2.00 105.419 70.037
2.01 115.598 67.541
2.02 --undefined-- 64.865
2.03 --undefined-- 64.195
2.04 --undefined-- 67.717
2.05 157.472 72.854
2.06 150.884 76.272
2.07 127.025 77.595
2.08 123.993 77.803
2.09 122.486 77.645
2.10 122.533 77.238
2.11 121.380 76.716
2.12 119.002 76.337
2.13 117.729 76.099
2.14 119.582 75.867
2.15 119.014 75.689
2.16 120.039 75.819
2.17 122.365 76.001
2.18 123.857 75.938
2.19 124.916 75.869
2.20 126.096 76.084
2.21 123.557 76.352
2.22 123.560 76.443
2.23 124.341 76.432
2.24 126.086 76.485
2.25 127.454 76.605
2.26 124.822 76.382
2.27 124.256 75.357
2.28 125.722 73.335
2.29 130.715 71.070
2.30 126.924 69.860
2.31 124.610 69.285
2.32 123.780 69.197
2.33 127.813 70.561
2.34 131.110 72.727
2.35 126.978 74.177
2.36 122.602 74.233
2.37 122.856 72.609
2.38 115.261 69.188
2.39 119.111 64.421
2.40 136.913 59.344
2.41 --undefined-- 54.012
2.42 --undefined-- 48.145
2.43 --undefined-- 45.140
2.44 --undefined-- 45.128
2.45 --undefined-- 47.379
2.46 --undefined-- 54.906
2.47 --undefined-- 64.512
2.48 219.786 71.938
2.49 206.221 76.180
2.50 196.157 77.947
2.51 191.862 78.289
2.52 190.978 78.014
2.53 192.181 77.474
2.54 193.422 76.859
2.55 192.992 76.249
2.56 194.172 75.621
2.57 197.188 74.723
2.58 194.914 72.740
2.59 80.022 68.989
2.60 --undefined-- 63.835
2.61 --undefined-- 58.185
2.62 --undefined-- 57.412
2.63 --undefined-- 60.221
2.64 --undefined-- 63.761
2.65 146.854 69.279
2.66 135.828 73.038
2.67 124.989 74.400
2.68 111.761 74.254
2.69 105.693 73.834
2.70 102.667 73.620
2.71 100.766 73.233
2.72 101.165 72.545
2.73 101.246 71.738
2.74 97.839 71.065
2.75 97.435 70.686
2.76 97.639 70.472
2.77 98.904 70.465
2.78 100.271 70.770
2.79 101.932 71.335
2.80 104.293 72.107
2.81 107.185 72.844
2.82 111.120 73.178
2.83 114.018 72.647
2.84 113.455 70.800
2.85 113.229 67.479
2.86 --undefined-- 62.878
2.87 --undefined-- 57.338
2.88 --undefined-- 51.585
2.89 --undefined-- 47.084
2.90 --undefined-- 44.831
2.91 --undefined-- 46.652
2.92 --undefined-- 57.853
2.93 --undefined-- 68.941
2.94 --undefined-- 75.512
2.95 208.522 78.520
2.96 196.227 79.219
2.97 196.205 79.277
2.98 198.007 79.559
2.99 199.003 79.794
3.00 199.421 79.815
3.01 198.559 79.669
3.02 197.019 79.383
3.03 195.333 79.018
3.04 194.812 78.731
3.05 195.028 78.581
3.06 195.442 78.488
3.07 196.376 78.466
3.08 196.852 78.454
3.09 196.527 78.322
3.10 197.055 78.134
3.11 198.038 77.956
3.12 198.280 77.770
3.13 197.709 77.672
3.14 197.041 77.675
3.15 195.849 77.191
3.16 193.771 75.430
3.17 176.724 72.386
3.18 171.667 69.234
3.19 166.943 66.564
3.20 197.554 63.890
3.21 184.252 60.310
3.22 --undefined-- 55.702
3.23 --undefined-- 58.776
3.24 --undefined-- 66.506
3.25 --undefined-- 73.322
3.26 --undefined-- 77.390
3.27 164.067 79.382
3.28 152.511 79.917
3.29 141.984 79.136
3.30 135.948 77.960
3.31 131.955 77.445
3.32 129.369 77.360
3.33 127.362 77.344
3.34 126.674 77.239
3.35 126.614 76.986
3.36 126.686 76.670
3.37 127.240 76.369
3.38 127.139 76.130
3.39 129.690 75.774
3.40 131.527 75.355
3.41 134.705 74.852
3.42 130.240 73.706
3.43 122.812 71.493
3.44 118.775 68.518
3.45 117.450 65.287
3.46 125.095 62.122
3.47 129.594 62.426
3.48 155.133 67.880
3.49 152.115 72.451
3.50 144.529 74.889
3.51 129.825 75.550
3.52 126.446 75.521
3.53 125.760 75.838
3.54 125.042 76.238
3.55 124.243 76.261
3.56 123.390 75.989
3.57 123.004 75.706
3.58 122.554 75.512
3.59 122.466 75.415
3.60 122.585 75.398
3.61 123.710 75.334
3.62 124.608 74.889
3.63 127.472 73.672
3.64 124.436 71.115
3.65 112.376 66.763
3.66 108.138 61.566
3.67 104.987 57.739
3.68 --undefined-- 55.227
3.69 --undefined-- 54.555
3.70 --undefined-- 55.964
3.71 --undefined-- 56.658
3.72 --undefined-- 56.221
3.73 --undefined-- 56.946
3.74 --undefined-- 59.795
3.75 --undefined-- 63.975
3.76 181.754 68.893
3.77 184.975 72.514
3.78 178.290 74.091
3.79 177.527 74.506
3.80 179.648 74.903
3.81 180.234 75.339
3.82 180.877 75.325
3.83 179.591 74.646
3.84 174.897 73.895
3.85 175.114 73.649
3.86 172.228 73.755
3.87 169.214 74.103
3.88 165.745 74.499
3.89 161.514 74.820
3.90 157.025 75.043
3.91 151.950 75.156
3.92 146.471 75.198
3.93 141.332 75.415
3.94 132.992 76.017
3.95 126.561 76.637
3.96 121.412 76.770
3.97 118.061 76.499
3.98 116.463 76.214
3.99 115.545 75.792
4.00 115.034 74.834
4.01 114.913 73.238
4.02 117.515 71.394
4.03 121.583 69.989
4.04 118.988 69.231
4.05 117.019 68.431
4.06 116.747 67.607
4.07 119.548 68.203
4.08 120.027 70.679
4.09 119.697 73.648
4.10 119.317 75.528
4.11 112.321 75.798
4.12 102.075 75.083
4.13 101.656 74.328
4.14 99.148 73.645
4.15 99.917 72.766
4.16 98.878 71.594
4.17 98.802 70.441
4.18 101.455 70.478
4.19 101.426 71.041
4.20 100.701 70.434
4.21 100.603 67.958
4.22 --undefined-- 63.355
4.23 --undefined-- 56.609
4.24 --undefined-- 50.036
4.25 --undefined-- 48.451
4.26 --undefined-- 48.011
4.27 --undefined-- 47.336
4.28 --undefined-- 47.752
4.29 --undefined-- 48.998
4.30 --undefined-- 49.010
4.31 --undefined-- 48.405
4.32 --undefined-- 47.504
4.33 --undefined-- 46.001
4.34 --undefined-- 44.818
4.35 --undefined-- 44.208
4.36 --undefined-- 44.151
4.37 --undefined-- 45.130
4.38 --undefined-- 45.892
4.39 --undefined-- 45.537
4.40 --undefined-- 44.638
4.41 --undefined-- 43.559
4.42 --undefined-- 41.904
4.43 --undefined-- 40.005
4.44 --undefined-- 38.311
4.45 --undefined-- 37.268
4.46 --undefined-- 37.399
4.47 --undefined-- 38.008
4.48 --undefined-- 41.346
4.49 --undefined-- 44.643
4.50 --undefined-- 45.321
4.51 --undefined-- 45.902
4.52 --undefined-- 50.974
4.53 --undefined-- 54.699
4.54 --undefined-- 55.198
4.55 --undefined-- 53.562
4.56 --undefined-- 58.425
4.57 --undefined-- 67.014
4.58 --undefined-- 72.812
4.59 121.339 75.974
4.60 119.124 77.649
4.61 119.839 78.452
4.62 124.019 78.556
4.63 126.731 78.417
4.64 128.767 78.520
4.65 128.171 78.638
4.66 128.271 78.426
4.67 124.114 78.052
4.68 120.282 77.641
4.69 116.190 77.119
4.70 113.524 76.380
4.71 107.132 75.356
4.72 102.850 74.291
4.73 98.880 73.133
4.74 91.970 71.588
4.75 92.355 70.120
4.76 92.960 69.310
4.77 96.223 69.016
4.78 95.152 68.772
4.79 92.907 68.135
4.80 92.057 67.216
4.81 91.575 66.132
4.82 91.104 64.331
4.83 92.319 62.060
4.84 114.527 64.397
4.85 120.245 69.314
4.86 118.332 72.390
4.87 107.339 73.790
4.88 103.558 74.404
4.89 102.755 74.825
4.90 103.416 74.967
4.91 104.799 74.848
4.92 106.491 74.665
4.93 107.993 74.464
4.94 108.577 74.129
4.95 109.667 73.193
4.96 106.052 71.045
4.97 113.226 67.588
4.98 127.411 62.759
4.99 --undefined-- 58.386
5.00 --undefined-- 63.705
5.01 178.127 70.357
5.02 166.975 74.352
5.03 148.199 75.714
5.04 140.615 74.959
5.05 134.081 73.053
5.06 137.779 72.410
5.07 146.420 74.072
5.08 146.678 75.630
5.09 144.884 76.265
5.10 142.915 76.119
5.11 139.431 75.399
5.12 135.437 73.723
5.13 127.526 70.417
5.14 118.471 65.100
5.15 --undefined-- 58.548
5.16 --undefined-- 52.325
5.17 --undefined-- 50.615
5.18 --undefined-- 53.057
5.19 --undefined-- 55.917
5.20 --undefined-- 57.500
5.21 --undefined-- 58.078
5.22 --undefined-- 60.352
5.23 168.913 64.869
5.24 167.170 68.114
5.25 143.747 68.647
5.26 129.714 66.885
5.27 121.778 64.506
5.28 115.333 64.270
5.29 138.791 66.704
5.30 139.595 70.424
5.31 137.421 73.674
5.32 116.134 75.403
5.33 112.360 75.947
5.34 112.091 75.990
5.35 111.940 76.040
5.36 111.073 75.983
5.37 110.246 75.591
5.38 109.547 75.097
5.39 108.692 74.776
5.40 107.658 74.441
5.41 107.274 73.980
5.42 106.882 73.519
5.43 106.123 73.015
5.44 105.362 --undefined--
5.45 103.924 --undefined--
5.46 --undefined-- --undefined--
5.47 --undefined-- --undefined--
