Time Pitch Intensity
0.01 --undefined-- --undefined--
0.02 189.135 --undefined--
0.03 195.372 --undefined--
0.04 200.252 --undefined--
0.05 202.747 75.674
0.06 205.260 75.475
0.07 209.482 74.780
0.08 217.946 73.044
0.09 222.337 69.724
0.10 209.773 63.976
0.11 211.332 56.319
0.12 --undefined-- 50.513
0.13 --undefined-- 47.107
0.14 --undefined-- 44.440
0.15 --undefined-- 43.202
0.16 --undefined-- 43.005
0.17 --undefined-- 48.334
0.18 --undefined-- 58.447
0.19 --undefined-- 66.455
0.20 --undefined-- 71.880
0.21 202.480 74.734
0.22 195.026 75.768
0.23 188.497 75.855
0.24 183.622 75.662
0.25 179.840 75.519
0.26 178.005 75.504
0.27 176.135 75.547
0.28 174.833 75.620
0.29 173.804 75.651
0.30 173.880 75.531
0.31 173.454 75.030
0.32 172.148 73.813
0.33 174.855 72.824
0.34 178.702 73.083
0.35 180.957 73.636
0.36 184.107 73.990
0.37 187.921 74.513
0.38 187.735 75.240
0.39 188.411 75.568
0.40 189.664 75.344
0.41 191.169 74.869
0.42 192.621 74.690
0.43 193.717 74.778
0.44 196.341 74.564
0.45 198.658 74.244
0.46 197.937 73.942
0.47 200.303 73.124
0.48 202.252 72.077
0.49 198.550 71.356
0.50 194.894 70.726
0.51 192.145 69.919
0.52 191.694 69.018
0.53 192.941 68.254
0.54 197.164 68.129
0.55 203.979 68.807
0.56 211.683 69.725
0.57 219.821 70.422
0.58 232.074 71.103
0.59 239.843 72.409
0.60 247.593 74.093
0.61 252.964 75.386
0.62 256.099 75.913
0.63 258.694 75.900
0.64 259.845 75.715
0.65 258.267 75.489
0.66 256.115 75.296
0.67 254.573 75.177
0.68 253.787 75.131
0.69 253.411 75.100
0.70 253.716 74.968
0.71 254.356 74.713
0.72 254.646 74.430
0.73 256.260 74.112
0.74 258.431 73.572
0.75 259.074 72.644
0.76 256.398 71.683
0.77 237.054 71.758
0.78 220.899 72.102
0.79 215.562 71.055
0.80 247.604 68.521
0.81 251.144 64.959
0.82 257.634 59.573
0.83 --undefined-- 51.697
0.84 --undefined-- 45.405
0.85 --undefined-- 43.882
0.86 --undefined-- 43.365
0.87 --undefined-- 42.704
0.88 --undefined-- 41.252
0.89 --undefined-- 39.510
0.90 --undefined-- 39.618
0.91 --undefined-- 41.114
0.92 --undefined-- 42.248
0.93 --undefined-- 41.881
0.94 --undefined-- 40.025
0.95 --undefined-- 38.300
0.96 --undefined-- 38.919
0.97 --undefined-- 40.582
0.98 --undefined-- 41.797
0.99 --undefined-- 41.685
1.00 --undefined-- 39.967
1.01 --undefined-- 37.806
1.02 --undefined-- 37.958
1.03 --undefined-- 40.463
1.04 --undefined-- 42.383
1.05 --undefined-- 42.386
1.06 --undefined-- 40.671
1.07 --undefined-- 39.281
1.08 --undefined-- 41.421
1.09 --undefined-- 45.900
1.10 --undefined-- 50.024
1.11 --undefined-- 51.628
1.12 --undefined-- 52.411
1.13 --undefined-- 55.382
1.14 --undefined-- 58.743
1.15 --undefined-- 60.889
1.16 --undefined-- 62.346
1.17 --undefined-- 65.587
1.18 264.223 69.424
1.19 270.071 71.868
1.20 269.112 73.205
1.21 271.975 74.326
1.22 270.015 75.348
1.23 262.439 75.512
1.24 255.986 73.915
1.25 --undefined-- 70.062
1.26 --undefined-- 64.167
1.27 --undefined-- 57.175
1.28 --undefined-- 50.535
1.29 --undefined-- 47.704
1.30 --undefined-- 45.898
1.31 --undefined-- 43.727
1.32 --undefined-- 42.311
1.33 --undefined-- 41.529
1.34 --undefined-- 41.780
1.35 --undefined-- 42.012
1.36 --undefined-- 40.902
1.37 --undefined-- 38.238
1.38 --undefined-- 36.626
1.39 --undefined-- 38.383
1.40 --undefined-- 39.970
1.41 --undefined-- 40.333
1.42 --undefined-- 39.629
1.43 --undefined-- 45.629
1.44 --undefined-- 59.194
1.45 --undefined-- 68.687
1.46 --undefined-- 73.904
1.47 --undefined-- 75.851
1.48 197.411 75.860
1.49 210.728 75.230
1.50 229.689 75.163
1.51 235.003 76.284
1.52 237.356 77.483
1.53 236.274 78.139
1.54 232.742 78.161
1.55 231.468 77.480
1.56 235.693 76.000
1.57 239.763 73.950
1.58 240.026 72.063
1.59 239.160 70.838
1.60 236.524 70.248
1.61 235.577 69.738
1.62 235.404 68.963
1.63 233.198 67.663
1.64 215.233 65.894
1.65 --undefined-- 64.443
1.66 --undefined-- 62.667
1.67 --undefined-- 59.009
1.68 --undefined-- 53.706
1.69 --undefined-- 48.119
1.70 --undefined-- 44.026
1.71 --undefined-- 42.838
1.72 --undefined-- 42.740
1.73 --undefined-- 42.834
1.74 --undefined-- 43.295
1.75 --undefined-- 43.138
1.76 --undefined-- 41.759
1.77 --undefined-- 40.940
1.78 --undefined-- 42.576
1.79 --undefined-- 44.264
1.80 --undefined-- 43.796
1.81 --undefined-- 42.267
1.82 --undefined-- 41.758
1.83 --undefined-- 42.616
1.84 --undefined-- 44.395
1.85 --undefined-- 45.701
1.86 --undefined-- 46.195
1.87 --undefined-- 46.506
1.88 --undefined-- 46.789
1.89 --undefined-- 47.061
1.90 --undefined-- 47.393
1.91 --undefined-- 47.736
1.92 --undefined-- 48.004
1.93 --undefined-- 47.453
1.94 --undefined-- 46.029
1.95 --undefined-- 44.547
1.96 --undefined-- 43.486
1.97 --undefined-- 42.966
1.98 --undefined-- 43.154
1.99 --undefined-- 43.288
2.00 --undefined-- 42.404
2.01 --undefined-- 40.497
2.02 --undefined-- 39.268
2.03 --undefined-- 40.853
2.04 --undefined-- 44.110
2.05 --undefined-- 46.714
2.06 --undefined-- 48.871
2.07 --undefined-- 50.187
2.08 --undefined-- 50.144
2.09 --undefined-- 49.262
2.10 --undefined-- 47.448
2.11 --undefined-- 46.228
2.12 --undefined-- 47.390
2.13 --undefined-- 48.235
2.14 --undefined-- 48.187
2.15 --undefined-- 47.866
2.16 --undefined-- 47.571
2.17 --undefined-- 48.100
2.18 --undefined-- 48.978
2.19 --undefined-- 49.515
2.20 --undefined-- 50.098
2.21 --undefined-- 51.823
2.22 --undefined-- 55.348
2.23 232.751 59.934
2.24 233.621 66.017
2.25 236.861 71.062
2.26 234.953 73.968
2.27 231.973 75.212
2.28 225.497 75.329
2.29 219.108 74.739
2.30 212.742 73.855
2.31 205.277 72.760
2.32 --undefined-- 70.970
2.33 --undefined-- 67.671
2.34 --undefined-- 61.901
2.35 --undefined-- 53.601
2.36 --undefined-- 48.453
2.37 --undefined-- 47.385
2.38 --undefined-- 45.934
2.39 --undefined-- 44.798
2.40 --undefined-- 43.783
2.41 --undefined-- 41.877
2.42 --undefined-- 39.476
2.43 --undefined-- 38.904
2.44 --undefined-- 40.337
2.45 --undefined-- 41.294
2.46 --undefined-- 40.920
2.47 --undefined-- 39.636
2.48 --undefined-- 38.346
2.49 --undefined-- 38.345
2.50 --undefined-- 39.561
2.51 --undefined-- 45.044
2.52 --undefined-- 55.777
2.53 --undefined-- 63.312
2.54 173.883 67.665
2.55 179.328 69.930
2.56 179.351 71.067
2.57 176.568 71.769
2.58 173.322 72.388
2.59 169.864 72.924
2.60 167.692 73.343
2.61 169.166 73.949
2.62 165.576 74.792
2.63 163.850 75.406
2.64 161.516 75.689
2.65 160.402 75.803
2.66 159.818 75.874
2.67 159.230 76.077
2.68 159.866 76.459
2.69 161.498 76.685
2.70 163.039 76.422
2.71 165.012 75.898
2.72 165.767 75.629
2.73 166.401 75.624
2.74 167.229 75.622
2.75 168.182 75.368
2.76 169.330 74.377
2.77 169.231 71.958
2.78 167.311 67.662
2.79 167.858 62.066
2.80 168.842 57.108
2.81 168.043 53.713
2.82 --undefined-- 50.959
2.83 --undefined-- 48.291
2.84 --undefined-- 47.382
2.85 --undefined-- 53.854
2.86 --undefined-- 61.881
2.87 --undefined-- 67.781
2.88 248.899 72.330
2.89 235.558 74.906
2.90 225.679 75.770
2.91 223.718 75.948
2.92 221.229 75.899
2.93 219.529 75.850
2.94 215.703 75.826
2.95 211.579 75.604
2.96 208.551 75.140
2.97 205.799 74.597
2.98 204.081 74.191
2.99 203.065 73.834
3.00 202.253 72.815
3.01 200.961 71.136
3.02 202.298 70.162
3.03 202.584 70.067
3.04 200.633 70.239
3.05 199.552 70.581
3.06 200.121 70.921
3.07 199.629 70.926
3.08 199.129 70.312
3.09 196.951 68.673
3.10 195.884 65.646
3.11 197.089 61.858
3.12 206.761 60.023
3.13 206.062 60.963
3.14 228.263 62.565
3.15 227.171 66.084
3.16 228.591 70.073
3.17 226.474 72.660
3.18 213.989 74.276
3.19 --undefined-- 75.417
3.20 --undefined-- 75.929
3.21 --undefined-- 75.703
3.22 154.205 75.056
3.23 152.650 74.203
3.24 153.637 73.081
3.25 154.436 71.143
3.26 76.309 67.685
3.27 76.562 63.273
3.28 74.794 59.339
3.29 --undefined-- 55.548
3.30 --undefined-- 51.369
3.31 --undefined-- 47.867
3.32 --undefined-- 45.195
3.33 --undefined-- 42.568
3.34 --undefined-- 42.024
3.35 --undefined-- 42.377
3.36 --undefined-- 42.560
3.37 --undefined-- 49.193
3.38 --undefined-- 58.422
3.39 --undefined-- 65.827
3.40 --undefined-- 71.682
3.41 199.038 75.182
3.42 194.484 76.557
3.43 187.831 76.911
3.44 184.434 76.927
3.45 181.710 76.547
3.46 179.918 75.692
3.47 178.421 74.514
3.48 177.009 73.488
3.49 175.748 72.921
3.50 174.681 72.529
3.51 173.997 72.265
3.52 174.133 72.198
3.53 174.610 72.104
3.54 175.554 71.909
3.55 175.590 71.827
3.56 174.611 72.012
3.57 172.465 72.354
3.58 170.306 72.691
3.59 168.653 73.130
3.60 167.489 73.846
3.61 165.448 74.754
3.62 162.446 75.578
3.63 156.954 75.812
3.64 149.361 75.345
3.65 142.465 74.786
3.66 139.012 74.313
3.67 135.238 73.867
3.68 129.890 73.654
3.69 127.139 73.396
3.70 124.144 72.883
3.71 115.209 72.343
3.72 112.017 71.663
3.73 111.611 70.186
3.74 --undefined-- 67.407
3.75 --undefined-- 63.409
3.76 --undefined-- 58.498
3.77 --undefined-- 53.061
3.78 --undefined-- 49.082
3.79 --undefined-- 48.094
3.80 --undefined-- 46.871
3.81 --undefined-- 46.708
3.82 --undefined-- 47.744
3.83 --undefined-- 48.516
3.84 --undefined-- 49.026
3.85 --undefined-- 49.574
3.86 --undefined-- 49.675
3.87 --undefined-- 49.100
3.88 --undefined-- 48.635
3.89 --undefined-- 48.695
3.90 --undefined-- 49.022
3.91 --undefined-- 49.318
3.92 --undefined-- 49.628
3.93 --undefined-- 49.253
3.94 --undefined-- 48.827
3.95 --undefined-- 49.127
3.96 --undefined-- 49.013
3.97 --undefined-- 48.423
3.98 --undefined-- 47.892
3.99 --undefined-- 47.308
4.00 --undefined-- 46.675
4.01 --undefined-- 46.081
4.02 --undefined-- 45.259
4.03 --undefined-- 43.604
4.04 --undefined-- 41.870
4.05 --undefined-- 41.467
4.06 --undefined-- 41.091
4.07 --undefined-- 40.286
4.08 --undefined-- 39.854
4.09 --undefined-- 42.351
4.10 --undefined-- 50.895
4.11 --undefined-- 60.189
4.12 --undefined-- 67.561
4.13 169.052 72.437
4.14 176.470 75.085
4.15 179.345 75.888
4.16 182.553 75.421
4.17 182.353 73.909
4.18 184.230 72.342
4.19 196.264 72.326
4.20 205.535 73.092
4.21 213.304 73.878
4.22 219.073 74.309
4.23 225.487 74.540
4.24 233.215 75.369
4.25 232.780 76.234
4.26 232.855 76.354
4.27 234.619 76.240
4.28 235.120 76.154
4.29 234.105 76.031
4.30 233.035 76.055
4.31 232.271 76.067
4.32 231.660 75.786
4.33 229.711 75.116
4.34 226.954 74.024
4.35 223.280 72.206
4.36 218.002 69.274
4.37 211.091 65.136
4.38 220.584 60.565
4.39 221.298 56.184
4.40 --undefined-- 59.614
4.41 --undefined-- 66.496
4.42 203.012 70.805
4.43 198.260 73.000
4.44 186.293 73.609
4.45 179.670 73.228
4.46 175.504 72.095
4.47 174.849 70.405
4.48 180.918 68.710
4.49 184.576 67.523
4.50 182.086 66.926
4.51 176.895 66.811
4.52 174.787 67.249
4.53 174.933 68.129
4.54 172.651 69.173
4.55 166.618 70.322
4.56 165.796 71.384
4.57 165.311 72.198
4.58 164.394 72.843
4.59 162.922 73.297
4.60 161.019 73.562
4.61 159.129 73.608
4.62 157.178 73.470
4.63 155.472 73.278
4.64 154.888 73.135
4.65 155.855 73.017
4.66 157.810 72.926
4.67 159.437 72.832
4.68 160.203 72.615
4.69 159.635 72.268
4.70 159.670 71.834
4.71 164.176 71.263
4.72 170.811 70.340
4.73 185.006 69.384
4.74 198.782 69.216
4.75 198.780 69.445
4.76 204.699 70.047
4.77 209.543 71.219
4.78 211.928 72.497
4.79 210.366 73.812
4.80 205.486 74.990
4.81 196.407 75.862
4.82 188.438 76.355
4.83 184.807 76.648
4.84 183.231 76.851
4.85 182.258 76.767
4.86 181.325 76.216
4.87 180.682 75.277
4.88 180.268 74.353
4.89 180.294 73.747
4.90 180.778 73.440
4.91 180.917 73.365
4.92 181.218 73.462
4.93 181.669 73.690
4.94 182.177 74.062
4.95 182.651 74.478
4.96 182.412 74.794
4.97 181.756 74.958
4.98 181.260 74.935
4.99 179.674 74.495
5.00 177.471 73.061
5.01 173.194 70.052
5.02 166.641 65.633
5.03 171.695 60.847
5.04 178.176 55.717
5.05 178.205 52.466
5.06 180.188 53.831
5.07 --undefined-- 56.624
5.08 --undefined-- 60.094
5.09 --undefined-- 63.001
5.10 --undefined-- 64.944
5.11 --undefined-- 66.286
5.12 --undefined-- 66.618
5.13 --undefined-- 65.861
5.14 --undefined-- 64.880
5.15 --undefined-- 64.039
5.16 --undefined-- 62.791
5.17 --undefined-- 62.762
5.18 170.054 66.317
5.19 167.421 69.645
5.20 163.479 71.711
5.21 162.541 73.016
5.22 162.947 73.830
5.23 164.614 74.316
5.24 167.370 74.641
5.25 171.065 74.756
5.26 176.011 74.612
5.27 180.078 74.493
5.28 183.753 74.606
5.29 186.431 74.531
5.30 189.307 74.004
5.31 189.959 73.149
5.32 190.937 72.143
5.33 191.964 71.234
5.34 193.848 71.161
5.35 193.199 72.412
5.36 191.165 74.295
5.37 189.521 75.707
5.38 185.404 75.925
5.39 177.772 75.433
5.40 173.136 75.447
5.41 170.166 76.027
5.42 168.812 76.515
5.43 169.541 76.402
5.44 171.446 75.593
5.45 172.450 74.525
5.46 173.798 73.567
5.47 174.078 72.606
5.48 174.367 71.602
5.49 179.619 71.244
5.50 189.337 72.030
5.51 196.461 73.327
5.52 202.010 74.559
5.53 205.831 75.666
5.54 209.028 76.407
5.55 210.813 76.490
5.56 213.127 76.230
5.57 216.123 76.019
5.58 218.277 75.548
5.59 222.679 74.318
5.60 230.739 71.660
5.61 236.233 67.194
5.62 225.748 61.021
5.63 225.797 54.543
5.64 --undefined-- 50.268
5.65 --undefined-- 47.620
5.66 --undefined-- 47.091
5.67 --undefined-- 48.885
5.68 --undefined-- 50.157
5.69 --undefined-- 48.975
5.70 --undefined-- 46.685
5.71 --undefined-- 45.448
5.72 --undefined-- 45.032
5.73 --undefined-- 44.519
5.74 --undefined-- 42.655
5.75 --undefined-- 40.525
5.76 --undefined-- 41.468
5.77 --undefined-- 42.808
5.78 --undefined-- 42.820
5.79 --undefined-- 41.774
5.80 --undefined-- 40.392
5.81 --undefined-- 42.004
5.82 --undefined-- 46.348
5.83 --undefined-- 48.338
5.84 --undefined-- 48.755
5.85 --undefined-- 51.550
5.86 --undefined-- 55.837
5.87 --undefined-- 60.130
5.88 --undefined-- 65.219
5.89 216.576 69.380
5.90 212.475 71.736
5.91 212.488 73.081
5.92 212.018 73.884
5.93 210.641 74.188
5.94 207.375 74.066
5.95 203.433 73.900
5.96 200.774 73.947
5.97 200.381 74.031
5.98 201.958 74.203
5.99 204.316 74.525
6.00 205.081 74.732
6.01 205.540 74.666
6.02 205.372 74.324
6.03 204.231 73.759
6.04 202.780 73.029
6.05 200.821 72.146
6.06 199.752 71.026
6.07 203.901 69.349
6.08 202.485 66.555
6.09 206.785 63.959
6.10 260.409 64.179
6.11 259.712 --undefined--
6.12 263.184 --undefined--
6.13 --undefined-- --undefined--
6.14 --undefined-- --undefined--
