Time Pitch Intensity
0.01 --undefined-- --undefined--
0.02 128.031 --undefined--
0.03 125.954 --undefined--
0.04 124.697 --undefined--
0.05 123.303 59.287
0.06 --undefined-- 60.075
0.07 --undefined-- 66.873
0.08 --undefined-- 72.077
0.09 --undefined-- 74.425
0.10 --undefined-- 74.010
0.11 --undefined-- 71.108
0.12 --undefined-- 66.367
0.13 --undefined-- 64.616
0.14 --undefined-- 67.382
0.15 109.551 69.238
0.16 106.619 70.796
0.17 107.419 73.037
0.18 108.238 75.075
0.19 108.308 76.284
0.20 108.783 76.632
0.21 110.406 76.196
0.22 112.165 75.390
0.23 113.337 74.175
0.24 114.276 71.784
0.25 114.599 67.632
0.26 --undefined-- 61.500
0.27 --undefined-- 54.958
0.28 --undefined-- 58.167
0.29 --undefined-- 63.224
0.30 --undefined-- 65.330
0.31 --undefined-- 64.054
0.32 --undefined-- 61.531
0.33 --undefined-- 65.082
0.34 --undefined-- 68.072
0.35 --undefined-- 68.147
0.36 --undefined-- 65.401
0.37 --undefined-- 60.396
0.38 --undefined-- 58.319
0.39 --undefined-- 63.191
0.40 97.917 67.123
0.41 97.039 69.079
0.42 93.739 69.304
0.43 92.214 68.690
0.44 90.060 68.359
0.45 89.811 68.265
0.46 89.340 68.204
0.47 89.241 68.156
0.48 89.155 68.032
0.49 89.012 67.836
0.50 90.946 67.229
0.51 --undefined-- 65.213
0.52 --undefined-- 61.151
0.53 --undefined-- 57.302
0.54 94.069 58.756
0.55 93.920 61.913
0.56 95.136 65.045
0.57 96.330 68.706
0.58 102.941 72.284
0.59 104.168 74.838
0.60 104.959 76.137
0.61 106.246 76.197
0.62 106.984 75.192
0.63 106.840 72.812
0.64 --undefined-- 68.600
0.65 113.856 63.928
0.66 115.861 64.034
0.67 --undefined-- 67.115
0.68 --undefined-- 68.749
0.69 --undefined-- 68.079
0.70 --undefined-- 65.189
0.71 --undefined-- 60.817
0.72 --undefined-- 57.224
0.73 --undefined-- 55.558
0.74 --undefined-- 53.712
0.75 --undefined-- 51.598
0.76 --undefined-- 49.576
0.77 --undefined-- 47.205
0.78 --undefined-- 44.320
0.79 --undefined-- 41.127
0.80 --undefined-- 39.143
0.81 --undefined-- 39.298
0.82 --undefined-- 41.003
0.83 --undefined-- 45.235
0.84 --undefined-- 52.943
0.85 --undefined-- 59.758
0.86 --undefined-- 64.625
0.87 --undefined-- 68.068
0.88 --undefined-- 70.131
0.89 --undefined-- 70.950
0.90 --undefined-- 70.717
0.91 --undefined-- 68.859
0.92 --undefined-- 64.188
0.93 --undefined-- 56.209
0.94 --undefined-- 54.995
0.95 --undefined-- 57.502
0.96 --undefined-- 55.988
0.97 --undefined-- 50.722
0.98 --undefined-- 44.019
0.99 --undefined-- 42.038
1.00 --undefined-- 45.460
1.01 --undefined-- 53.136
1.02 --undefined-- 59.572
1.03 --undefined-- 65.704
1.04 --undefined-- 69.838
1.05 --undefined-- 71.317
1.06 --undefined-- 70.773
1.07 --undefined-- 69.080
1.08 --undefined-- 68.960
1.09 --undefined-- 71.430
1.10 --undefined-- 72.193
1.11 --undefined-- 70.426
1.12 --undefined-- 66.531
1.13 --undefined-- 60.871
1.14 --undefined-- 53.787
1.15 --undefined-- 47.216
1.16 --undefined-- 46.814
1.17 --undefined-- 51.355
1.18 --undefined-- 55.123
1.19 --undefined-- 55.041
1.20 --undefined-- 50.478
1.21 --undefined-- 41.575
1.22 --undefined-- 35.341
1.23 --undefined-- 33.668
1.24 --undefined-- 32.992
1.25 --undefined-- 34.014
1.26 --undefined-- 41.852
1.27 --undefined-- 53.259
1.28 --undefined-- 59.660
1.29 --undefined-- 62.565
1.30 --undefined-- 65.417
1.31 --undefined-- 68.559
1.32 94.296 69.956
1.33 89.873 69.456
1.34 88.307 67.998
1.35 87.077 66.696
1.36 86.186 65.726
1.37 86.359 65.065
1.38 87.221 64.381
1.39 89.127 63.860
1.40 91.288 63.949
1.41 93.359 64.454
1.42 95.551 65.085
1.43 96.126 65.906
1.44 97.194 66.953
1.45 98.618 68.116
1.46 99.569 69.011
1.47 100.872 69.646
1.48 100.871 70.037
1.49 100.062 69.970
1.50 99.560 69.230
1.51 98.857 67.491
1.52 --undefined-- 64.007
1.53 --undefined-- 57.579
1.54 --undefined-- 47.532
1.55 --undefined-- 41.238
1.56 --undefined-- 40.450
1.57 --undefined-- 39.381
1.58 --undefined-- 40.194
1.59 --undefined-- 47.624
1.60 --undefined-- 54.362
1.61 --undefined-- 58.370
1.62 --undefined-- 60.249
1.63 --undefined-- 61.247
1.64 --undefined-- 62.880
1.65 108.768 64.446
1.66 107.956 65.553
1.67 107.656 66.276
1.68 106.743 66.680
1.69 105.836 66.930
1.70 104.849 67.005
1.71 102.971 66.677
1.72 102.270 65.482
1.73 100.042 62.771
1.74 --undefined-- 57.888
1.75 --undefined-- 50.631
1.76 --undefined-- 42.979
1.77 --undefined-- 39.003
1.78 --undefined-- 45.865
1.79 --undefined-- 55.063
1.80 --undefined-- 59.887
1.81 --undefined-- 62.296
1.82 --undefined-- 63.058
1.83 --undefined-- 61.079
1.84 --undefined-- 61.096
1.85 105.020 64.989
1.86 105.136 66.836
1.87 96.481 66.867
1.88 92.889 65.571
1.89 90.382 63.384
1.90 89.929 61.094
1.91 87.648 59.257
1.92 87.339 58.200
1.93 87.377 57.358
1.94 86.139 56.491
1.95 85.103 56.482
1.96 84.944 57.040
1.97 85.285 57.595
1.98 85.240 58.252
1.99 84.635 58.863
2.00 84.650 59.033
2.01 83.324 58.907
2.02 82.868 59.085
2.03 82.358 59.452
2.04 82.073 59.673
2.05 81.963 59.058
2.06 81.882 56.930
2.07 --undefined-- 53.470
2.08 --undefined-- 50.463
2.09 --undefined-- 49.707
2.10 --undefined-- 49.762
2.11 --undefined-- 50.539
2.12 --undefined-- 52.172
2.13 --undefined-- 53.116
2.14 --undefined-- 54.332
2.15 --undefined-- 58.536
2.16 --undefined-- 62.168
2.17 101.579 63.726
2.18 101.586 63.246
2.19 --undefined-- 60.567
2.20 --undefined-- 55.679
2.21 --undefined-- 50.701
2.22 --undefined-- 49.468
2.23 --undefined-- 49.794
2.24 --undefined-- 51.110
2.25 86.413 54.405
2.26 86.110 57.964
2.27 84.379 60.408
2.28 84.058 62.285
2.29 83.723 63.545
2.30 83.371 63.994
2.31 83.225 63.949
2.32 80.335 62.548
2.33 --undefined-- 59.155
2.34 --undefined-- 54.321
2.35 --undefined-- 48.464
2.36 --undefined-- 43.240
2.37 --undefined-- 47.410
2.38 --undefined-- 54.954
2.39 81.621 59.815
2.40 81.678 62.627
2.41 79.610 63.991
2.42 78.781 64.154
2.43 --undefined-- 62.827
2.44 --undefined-- 59.088
2.45 --undefined-- 52.124
2.46 --undefined-- 42.674
2.47 --undefined-- 36.990
2.48 --undefined-- 37.042
2.49 --undefined-- 39.407
2.50 --undefined-- 53.475
2.51 --undefined-- 63.169
2.52 --undefined-- 67.559
2.53 --undefined-- 67.956
2.54 --undefined-- 66.775
2.55 --undefined-- 66.821
2.56 --undefined-- 67.050
2.57 --undefined-- 66.118
2.58 --undefined-- 63.363
2.59 --undefined-- 59.207
2.60 --undefined-- 55.350
2.61 --undefined-- 52.458
2.62 --undefined-- 50.304
2.63 --undefined-- 48.681
2.64 --undefined-- 47.625
2.65 --undefined-- 47.082
2.66 --undefined-- 45.922
2.67 --undefined-- 43.267
2.68 --undefined-- 41.370
2.69 --undefined-- 42.843
2.70 --undefined-- 45.122
2.71 --undefined-- 47.052
2.72 --undefined-- 48.272
2.73 --undefined-- 48.167
2.74 --undefined-- 47.108
2.75 --undefined-- 46.858
2.76 --undefined-- 48.083
2.77 --undefined-- 51.235
2.78 --undefined-- 54.937
2.79 77.059 58.613
2.80 76.942 62.347
2.81 78.041 65.504
2.82 --undefined-- 67.772
2.83 --undefined-- 68.865
2.84 --undefined-- 68.163
2.85 --undefined-- 65.778
2.86 --undefined-- 62.976
2.87 --undefined-- 61.960
2.88 --undefined-- 62.029
2.89 --undefined-- 62.210
2.90 --undefined-- 62.454
2.91 --undefined-- 62.983
2.92 --undefined-- 63.997
2.93 74.946 64.334
2.94 74.704 63.412
2.95 87.398 62.272
2.96 76.941 61.763
2.97 75.961 61.316
2.98 75.487 60.990
2.99 75.426 61.313
3.00 75.295 61.143
3.01 --undefined-- 59.902
3.02 --undefined-- 57.699
3.03 --undefined-- 54.423
3.04 --undefined-- 51.088
3.05 --undefined-- 49.255
3.06 --undefined-- 47.246
3.07 --undefined-- 44.639
3.08 --undefined-- 41.902
3.09 --undefined-- 39.382
3.10 --undefined-- 39.864
3.11 --undefined-- 42.160
3.12 --undefined-- 44.076
3.13 --undefined-- 45.441
3.14 --undefined-- 46.544
3.15 --undefined-- 47.261
3.16 --undefined-- 46.738
3.17 --undefined-- 45.042
3.18 --undefined-- 44.149
3.19 --undefined-- 44.167
3.20 --undefined-- 44.314
3.21 --undefined-- 44.256
3.22 --undefined-- 43.988
3.23 --undefined-- 44.500
3.24 --undefined-- 44.968
3.25 --undefined-- 44.714
3.26 --undefined-- 44.506
3.27 --undefined-- 44.928
3.28 --undefined-- 45.660
3.29 --undefined-- 46.045
3.30 --undefined-- 46.023
3.31 --undefined-- 45.702
3.32 --undefined-- 45.458
3.33 --undefined-- 45.271
3.34 --undefined-- 44.842
3.35 --undefined-- 44.874
3.36 --undefined-- 45.798
3.37 --undefined-- 46.803
3.38 --undefined-- 47.826
3.39 --undefined-- 52.050
3.40 --undefined-- 55.398
3.41 --undefined-- 55.093
3.42 --undefined-- 51.073
3.43 --undefined-- 45.040
3.44 --undefined-- 41.961
3.45 --undefined-- 40.912
3.46 --undefined-- 40.376
3.47 --undefined-- 39.247
3.48 --undefined-- 37.057
3.49 --undefined-- 34.865
3.50 --undefined-- 34.660
3.51 --undefined-- 35.409
3.52 --undefined-- 35.406
3.53 --undefined-- 36.203
3.54 --undefined-- 46.141
3.55 --undefined-- 55.481
3.56 --undefined-- 59.911
3.57 --undefined-- 60.214
3.58 --undefined-- 59.157
3.59 --undefined-- 63.515
3.60 --undefined-- 66.883
3.61 --undefined-- 66.521
3.62 --undefined-- 62.712
3.63 102.449 58.128
3.64 102.532 57.611
3.65 103.381 58.431
3.66 105.792 58.626
3.67 107.414 58.838
3.68 108.588 59.377
3.69 109.349 59.372
3.70 109.059 59.066
3.71 107.513 59.784
3.72 106.136 62.070
3.73 104.245 65.098
3.74 103.013 67.755
3.75 101.314 69.524
3.76 100.691 70.107
3.77 96.990 68.976
3.78 --undefined-- 65.698
3.79 --undefined-- 60.444
3.80 --undefined-- 57.070
3.81 --undefined-- 58.692
3.82 --undefined-- 60.458
3.83 --undefined-- 61.060
3.84 --undefined-- 60.465
3.85 --undefined-- 60.293
3.86 --undefined-- 62.264
3.87 --undefined-- 63.332
3.88 --undefined-- 61.761
3.89 --undefined-- 58.977
3.90 --undefined-- 57.145
3.91 --undefined-- 56.979
3.92 --undefined-- 60.504
3.93 --undefined-- 65.080
3.94 --undefined-- 67.600
3.95 --undefined-- 67.842
3.96 --undefined-- 66.484
3.97 --undefined-- 64.678
3.98 --undefined-- 63.073
3.99 --undefined-- 60.532
4.00 --undefined-- 58.079
4.01 --undefined-- 59.198
4.02 --undefined-- 60.119
4.03 --undefined-- 59.192
4.04 --undefined-- 59.480
4.05 79.813 59.940
4.06 80.384 58.545
4.07 82.476 57.526
4.08 81.685 57.780
4.09 80.739 58.135
4.10 78.429 58.628
4.11 --undefined-- 58.837
4.12 84.409 58.285
4.13 84.075 59.022
4.14 --undefined-- 64.133
4.15 --undefined-- 69.164
4.16 96.502 72.013
4.17 100.433 73.074
4.18 103.365 73.283
4.19 104.480 73.163
4.20 105.320 72.314
4.21 104.645 70.414
4.22 --undefined-- 67.177
4.23 --undefined-- 62.736
4.24 --undefined-- 58.944
4.25 --undefined-- 55.460
4.26 --undefined-- 51.175
4.27 --undefined-- 46.478
4.28 --undefined-- 41.326
4.29 --undefined-- 37.938
4.30 --undefined-- 38.406
4.31 --undefined-- 39.420
4.32 --undefined-- 39.642
4.33 --undefined-- 39.166
4.34 --undefined-- 39.855
4.35 --undefined-- 42.839
4.36 --undefined-- 44.646
4.37 --undefined-- 45.049
4.38 --undefined-- 44.804
4.39 --undefined-- 44.249
4.40 --undefined-- 44.651
4.41 --undefined-- 45.825
4.42 --undefined-- 46.414
4.43 --undefined-- 45.375
4.44 --undefined-- 43.606
4.45 --undefined-- 42.764
4.46 --undefined-- 42.180
4.47 --undefined-- 41.844
4.48 --undefined-- 43.990
4.49 --undefined-- 50.290
4.50 --undefined-- 54.639
4.51 --undefined-- 55.532
4.52 --undefined-- 53.329
4.53 --undefined-- 48.391
4.54 --undefined-- 42.056
4.55 --undefined-- 38.179
4.56 --undefined-- 36.563
4.57 --undefined-- 35.801
4.58 --undefined-- 35.216
4.59 --undefined-- 35.190
4.60 --undefined-- 35.992
4.61 --undefined-- 36.585
4.62 --undefined-- 35.056
4.63 --undefined-- 32.173
4.64 --undefined-- 31.337
4.65 --undefined-- 33.138
4.66 --undefined-- 36.088
4.67 --undefined-- 40.145
4.68 --undefined-- 45.750
4.69 --undefined-- 50.175
4.70 --undefined-- 52.925
4.71 110.039 54.862
4.72 104.219 56.439
4.73 100.323 58.109
4.74 99.988 60.222
4.75 94.318 62.011
4.76 91.532 62.738
4.77 91.902 62.675
4.78 89.867 62.754
4.79 90.045 62.792
4.80 86.680 62.613
4.81 85.966 62.487
4.82 86.474 62.493
4.83 86.373 62.439
4.84 86.644 62.055
4.85 87.042 61.186
4.86 87.963 59.608
4.87 87.441 56.628
4.88 --undefined-- 51.652
4.89 --undefined-- 45.366
4.90 --undefined-- 43.563
4.91 --undefined-- 47.952
4.92 --undefined-- 52.855
4.93 --undefined-- 60.247
4.94 --undefined-- 67.582
4.95 --undefined-- 71.641
4.96 118.443 73.071
4.97 122.381 73.136
4.98 126.076 72.691
4.99 129.428 71.893
5.00 129.931 70.381
5.01 128.121 67.565
5.02 --undefined-- 62.801
5.03 --undefined-- 55.502
5.04 --undefined-- 46.139
5.05 --undefined-- 41.726
5.06 --undefined-- 46.494
5.07 --undefined-- 54.672
5.08 --undefined-- 61.478
5.09 --undefined-- 66.839
5.10 --undefined-- 71.874
5.11 --undefined-- 76.768
5.12 --undefined-- 79.388
5.13 --undefined-- 78.977
5.14 --undefined-- 76.129
5.15 --undefined-- 72.881
5.16 --undefined-- 73.503
5.17 135.847 76.179
5.18 134.310 77.772
5.19 --undefined-- 78.512
5.20 --undefined-- 78.836
5.21 --undefined-- 78.361
5.22 --undefined-- 76.656
5.23 --undefined-- 73.465
5.24 --undefined-- 68.366
5.25 --undefined-- 60.898
5.26 --undefined-- 52.031
5.27 --undefined-- 47.103
5.28 --undefined-- 45.299
5.29 --undefined-- 44.434
5.30 --undefined-- 49.410
5.31 --undefined-- 59.101
5.32 --undefined-- 64.379
5.33 --undefined-- 65.742
5.34 --undefined-- 66.189
5.35 116.790 69.337
5.36 115.545 71.659
5.37 108.958 72.337
5.38 104.221 71.549
5.39 101.494 68.858
5.40 --undefined-- 64.123
5.41 --undefined-- 57.495
5.42 --undefined-- 49.641
5.43 --undefined-- 43.926
5.44 --undefined-- 44.423
5.45 --undefined-- 50.655
5.46 --undefined-- 54.656
5.47 --undefined-- 54.465
5.48 --undefined-- 49.928
5.49 --undefined-- 42.028
5.50 --undefined-- 38.630
5.51 --undefined-- 38.184
5.52 --undefined-- 39.263
5.53 --undefined-- 47.736
5.54 --undefined-- 55.938
5.55 --undefined-- 62.684
5.56 --undefined-- 68.211
5.57 --undefined-- 71.374
5.58 107.183 72.607
5.59 103.826 72.859
5.60 102.814 72.712
5.61 102.186 72.378
5.62 101.886 72.099
5.63 101.353 71.740
5.64 101.261 --undefined--
5.65 101.898 --undefined--
5.66 --undefined-- --undefined--
5.67 --undefined-- --undefined--
