Time Pitch Intensity
0.01 --undefined-- --undefined--
0.02 283.795 --undefined--
0.03 287.547 --undefined--
0.04 288.991 --undefined--
0.05 290.264 73.243
0.06 291.105 73.816
0.07 291.204 74.220
0.08 291.966 74.403
0.09 293.043 74.438
0.10 293.171 74.344
0.11 292.282 74.125
0.12 290.166 73.861
0.13 287.076 73.386
0.14 282.669 72.305
0.15 277.865 69.928
0.16 256.747 65.351
0.17 --undefined-- 59.116
0.18 --undefined-- 58.021
0.19 --undefined-- 59.017
0.20 --undefined-- 60.234
0.21 247.728 66.532
0.22 249.082 71.485
0.23 243.520 73.943
0.24 232.139 75.016
0.25 215.553 75.866
0.26 208.600 76.476
0.27 204.693 76.414
0.28 201.015 75.790
0.29 197.814 75.053
0.30 195.645 74.571
0.31 193.733 74.409
0.32 192.617 74.712
0.33 191.814 75.495
0.34 190.465 76.326
0.35 188.356 76.693
0.36 186.431 76.659
0.37 185.665 76.824
0.38 185.233 77.102
0.39 184.175 76.994
0.40 183.512 76.385
0.41 183.811 75.382
0.42 184.692 74.256
0.43 185.182 73.008
0.44 184.120 70.818
0.45 173.992 66.748
0.46 172.757 61.053
0.47 --undefined-- 54.742
0.48 --undefined-- 51.072
0.49 --undefined-- 60.410
0.50 --undefined-- 68.773
0.51 183.463 73.714
0.52 183.210 75.937
0.53 178.648 76.424
0.54 172.791 75.851
0.55 170.101 74.356
0.56 166.648 71.652
0.57 158.994 68.113
0.58 163.844 66.386
0.59 167.048 66.882
0.60 168.662 67.460
0.61 170.316 67.636
0.62 171.294 67.650
0.63 172.557 67.853
0.64 173.878 68.252
0.65 175.012 68.672
0.66 175.351 69.275
0.67 177.577 70.372
0.68 174.228 71.715
0.69 172.597 72.686
0.70 171.719 73.186
0.71 170.349 73.459
0.72 169.224 73.792
0.73 168.417 74.398
0.74 168.032 75.313
0.75 167.864 76.160
0.76 167.638 76.373
0.77 169.504 75.971
0.78 170.573 75.445
0.79 170.325 75.079
0.80 168.227 74.266
0.81 164.743 72.180
0.82 163.488 68.537
0.83 165.990 63.731
0.84 166.332 58.927
0.85 166.611 55.032
0.86 165.960 52.204
0.87 --undefined-- 50.366
0.88 --undefined-- 48.582
0.89 --undefined-- 48.118
0.90 --undefined-- 50.799
0.91 --undefined-- 57.373
0.92 --undefined-- 64.779
0.93 --undefined-- 70.139
0.94 197.273 73.394
0.95 193.470 75.032
0.96 190.997 75.238
0.97 188.981 73.555
0.98 --undefined-- 69.283
0.99 --undefined-- 62.345
1.00 --undefined-- 54.942
1.01 --undefined-- 50.987
1.02 --undefined-- 49.974
1.03 --undefined-- 48.585
1.04 --undefined-- 46.969
1.05 --undefined-- 44.925
1.06 --undefined-- 42.297
1.07 --undefined-- 40.459
1.08 --undefined-- 39.562
1.09 --undefined-- 40.188
1.10 --undefined-- 41.650
1.11 --undefined-- 42.459
1.12 --undefined-- 49.280
1.13 --undefined-- 60.684
1.14 --undefined-- 68.703
1.15 --undefined-- 73.330
1.16 167.715 75.445
1.17 163.415 76.111
1.18 159.460 76.173
1.19 156.294 76.038
1.20 153.422 75.842
1.21 151.491 75.700
1.22 150.403 75.635
1.23 149.715 75.226
1.24 149.745 74.247
1.25 150.883 72.871
1.26 154.567 71.692
1.27 162.083 71.789
1.28 171.895 72.741
1.29 185.544 73.772
1.30 193.450 74.774
1.31 200.153 75.539
1.32 206.180 75.946
1.33 211.906 76.167
1.34 214.572 76.221
1.35 212.489 76.134
1.36 211.276 75.798
1.37 210.517 75.312
1.38 210.746 74.995
1.39 212.030 74.631
1.40 212.960 73.952
1.41 215.115 73.123
1.42 226.474 72.465
1.43 234.596 72.002
1.44 237.579 71.580
1.45 234.240 71.170
1.46 230.677 70.889
1.47 229.070 70.571
1.48 225.996 70.145
1.49 221.212 70.057
1.50 218.117 70.559
1.51 213.937 71.218
1.52 209.702 71.809
1.53 204.662 72.380
1.54 199.790 73.002
1.55 187.414 73.670
1.56 182.868 74.224
1.57 176.405 74.493
1.58 171.099 74.591
1.59 163.570 74.588
1.60 159.027 74.315
1.61 157.530 73.976
1.62 158.441 73.945
1.63 159.828 73.975
1.64 160.768 74.011
1.65 161.001 74.148
1.66 160.873 74.255
1.67 161.049 74.364
1.68 161.190 74.458
1.69 162.488 74.461
1.70 163.921 74.196
1.71 164.866 73.432
1.72 165.973 72.295
1.73 166.679 71.163
1.74 167.403 70.362
1.75 168.549 70.375
1.76 170.503 71.615
1.77 176.146 73.670
1.78 181.843 75.881
1.79 186.079 77.480
1.80 183.943 77.726
1.81 180.993 76.707
1.82 179.027 75.557
1.83 178.323 75.091
1.84 177.570 74.988
1.85 177.606 74.914
1.86 177.726 74.721
1.87 177.343 74.371
1.88 176.153 74.004
1.89 176.159 73.738
1.90 177.266 73.596
1.91 179.229 73.533
1.92 181.251 73.457
1.93 183.044 73.245
1.94 185.653 72.847
1.95 189.343 72.373
1.96 192.705 71.807
1.97 197.587 71.005
1.98 205.171 70.114
1.99 207.791 69.153
2.00 211.154 67.631
2.01 217.017 65.269
2.02 215.495 61.908
2.03 --undefined-- 57.760
2.04 --undefined-- 53.743
2.05 --undefined-- 48.928
2.06 --undefined-- 45.085
2.07 --undefined-- 44.280
2.08 --undefined-- 43.972
2.09 --undefined-- 42.851
2.10 --undefined-- 40.908
2.11 --undefined-- 40.408
2.12 --undefined-- 46.242
2.13 --undefined-- 55.976
2.14 --undefined-- 64.692
2.15 --undefined-- 69.736
2.16 167.799 71.621
2.17 167.576 71.877
2.18 163.634 71.810
2.19 158.657 71.437
2.20 152.976 70.694
2.21 148.837 69.899
2.22 145.756 69.272
2.23 144.521 68.585
2.24 144.013 67.812
2.25 144.010 67.517
2.26 146.167 68.161
2.27 148.799 69.349
2.28 150.812 70.348
2.29 152.496 70.596
2.30 152.378 69.299
2.31 142.896 65.647
2.32 111.949 59.411
2.33 --undefined-- 52.152
2.34 --undefined-- 47.965
2.35 --undefined-- 46.612
2.36 --undefined-- 47.832
2.37 --undefined-- 50.131
2.38 --undefined-- 53.894
2.39 --undefined-- 62.970
2.40 --undefined-- 70.205
2.41 175.215 73.915
2.42 168.107 74.687
2.43 162.500 73.270
2.44 148.137 70.677
2.45 151.143 68.560
2.46 152.214 68.207
2.47 148.920 69.633
2.48 161.545 71.576
2.49 168.580 72.432
2.50 169.834 71.011
2.51 --undefined-- 66.615
2.52 --undefined-- 59.551
2.53 --undefined-- 53.528
2.54 --undefined-- 50.189
2.55 --undefined-- 47.870
2.56 --undefined-- 45.956
2.57 --undefined-- 43.915
2.58 --undefined-- 48.761
2.59 --undefined-- 57.547
2.60 --undefined-- 66.000
2.61 --undefined-- 72.425
2.62 249.658 75.897
2.63 244.550 77.004
2.64 237.476 76.284
2.65 228.178 73.733
2.66 229.376 69.432
2.67 231.666 63.820
2.68 --undefined-- 57.088
2.69 --undefined-- 50.441
2.70 --undefined-- 46.882
2.71 --undefined-- 46.297
2.72 --undefined-- 45.105
2.73 --undefined-- 44.163
2.74 --undefined-- 50.843
2.75 --undefined-- 60.813
2.76 --undefined-- 67.417
2.77 179.292 71.562
2.78 188.265 74.123
2.79 188.626 75.415
2.80 176.837 75.843
2.81 173.248 75.847
2.82 168.746 75.354
2.83 164.841 73.959
2.84 161.816 71.329
2.85 159.393 68.806
2.86 160.947 68.517
2.87 162.300 69.176
2.88 163.113 69.630
2.89 161.432 69.757
2.90 160.187 69.693
2.91 165.273 69.503
2.92 190.236 69.127
2.93 187.544 69.377
2.94 174.546 70.176
2.95 161.846 70.953
2.96 154.317 71.738
2.97 150.550 71.975
2.98 145.644 71.542
2.99 142.248 70.801
3.00 141.343 70.060
3.01 141.462 69.375
3.02 142.325 68.504
3.03 147.960 68.062
3.04 153.942 68.783
3.05 156.472 69.760
3.06 159.188 70.514
3.07 160.856 71.153
3.08 162.296 71.753
3.09 164.658 72.703
3.10 167.753 74.149
3.11 165.070 75.100
3.12 161.958 74.580
3.13 158.239 72.359
3.14 153.839 68.825
3.15 159.042 64.872
3.16 161.140 60.575
3.17 160.245 55.862
3.18 --undefined-- 52.105
3.19 --undefined-- 49.485
3.20 --undefined-- 47.633
3.21 --undefined-- 45.607
3.22 --undefined-- 45.313
3.23 --undefined-- 45.457
3.24 --undefined-- 44.479
3.25 --undefined-- 42.354
3.26 --undefined-- 41.335
3.27 --undefined-- 42.740
3.28 --undefined-- 44.416
3.29 --undefined-- 46.462
3.30 --undefined-- 54.445
3.31 --undefined-- 63.861
3.32 232.531 70.370
3.33 219.775 74.016
3.34 219.422 75.850
3.35 220.241 77.064
3.36 221.236 78.098
3.37 222.622 78.641
3.38 222.881 78.452
3.39 221.888 77.647
3.40 221.025 76.522
3.41 219.955 75.206
3.42 219.540 73.823
3.43 218.984 72.617
3.44 218.815 71.322
3.45 216.191 69.047
3.46 208.755 65.445
3.47 207.065 61.401
3.48 206.134 60.956
3.49 234.563 66.343
3.50 223.003 70.491
3.51 210.625 72.504
3.52 198.768 73.348
3.53 189.172 73.867
3.54 181.928 74.196
3.55 175.344 74.109
3.56 170.660 73.357
3.57 169.132 72.110
3.58 172.263 70.614
3.59 176.111 69.231
3.60 177.004 68.833
3.61 178.096 69.577
3.62 183.543 71.242
3.63 190.794 73.560
3.64 194.433 75.827
3.65 199.594 77.065
3.66 199.047 76.691
3.67 195.907 75.341
3.68 197.629 74.825
3.69 199.509 75.164
3.70 200.658 75.463
3.71 201.261 75.603
3.72 201.600 75.409
3.73 201.467 74.873
3.74 200.018 74.561
3.75 201.281 74.562
3.76 204.228 73.980
3.77 207.100 71.926
3.78 205.066 68.242
3.79 199.184 63.646
3.80 197.542 59.131
3.81 --undefined-- 58.967
3.82 --undefined-- 62.042
3.83 --undefined-- 63.411
3.84 207.789 65.720
3.85 209.541 68.869
3.86 196.852 70.702
3.87 191.265 71.695
3.88 165.564 72.647
3.89 154.061 73.593
3.90 148.104 74.306
3.91 141.416 74.366
3.92 130.778 73.246
3.93 157.882 71.268
3.94 --undefined-- 69.661
3.95 --undefined-- 69.150
3.96 --undefined-- 68.149
3.97 94.793 67.045
3.98 94.860 67.600
3.99 97.196 69.075
4.00 99.153 70.460
4.01 118.864 72.033
4.02 122.491 73.485
4.03 136.639 74.414
4.04 152.409 75.348
4.05 159.483 76.249
4.06 165.288 76.807
4.07 171.627 77.058
4.08 176.334 77.000
4.09 176.778 76.588
4.10 178.554 76.056
4.11 180.922 75.784
4.12 182.090 75.802
4.13 182.018 75.882
4.14 180.683 75.775
4.15 178.257 75.160
4.16 173.565 73.973
4.17 164.640 72.615
4.18 159.521 70.703
4.19 154.106 67.599
4.20 144.423 63.820
4.21 159.196 60.317
4.22 159.137 56.042
4.23 --undefined-- 50.786
4.24 --undefined-- 48.130
4.25 --undefined-- 48.760
4.26 --undefined-- 49.536
4.27 --undefined-- 49.777
4.28 --undefined-- 49.538
4.29 --undefined-- 48.397
4.30 --undefined-- 47.438
4.31 --undefined-- 47.330
4.32 --undefined-- 47.181
4.33 --undefined-- 47.605
4.34 --undefined-- 48.633
4.35 --undefined-- 48.928
4.36 --undefined-- 48.546
4.37 --undefined-- 49.008
4.38 --undefined-- 50.165
4.39 --undefined-- 51.030
4.40 --undefined-- 51.207
4.41 --undefined-- 51.149
4.42 --undefined-- 51.193
4.43 --undefined-- 51.850
4.44 --undefined-- 52.651
4.45 --undefined-- 52.680
4.46 --undefined-- 52.235
4.47 --undefined-- 52.265
4.48 --undefined-- 52.728
4.49 --undefined-- 52.643
4.50 --undefined-- 51.859
4.51 --undefined-- 51.203
4.52 --undefined-- 51.428
4.53 --undefined-- 51.701
4.54 --undefined-- 51.453
4.55 --undefined-- 51.394
4.56 --undefined-- 51.622
4.57 --undefined-- 51.750
4.58 --undefined-- 51.373
4.59 --undefined-- 50.526
4.60 --undefined-- 49.527
4.61 --undefined-- 47.943
4.62 --undefined-- 46.012
4.63 --undefined-- 44.398
4.64 --undefined-- 43.367
4.65 --undefined-- 43.367
4.66 --undefined-- 43.428
4.67 --undefined-- 46.664
4.68 --undefined-- 56.003
4.69 --undefined-- 64.782
4.70 201.694 70.917
4.71 202.257 74.595
4.72 209.097 76.375
4.73 219.102 76.653
4.74 231.820 75.707
4.75 237.218 73.815
4.76 252.843 72.355
4.77 265.420 72.461
4.78 277.542 72.925
4.79 286.956 73.701
4.80 293.235 74.652
4.81 296.023 75.452
4.82 291.924 75.952
4.83 285.814 76.230
4.84 278.275 76.299
4.85 270.030 76.117
4.86 262.169 75.989
4.87 255.829 76.102
4.88 250.080 75.732
4.89 241.781 74.165
4.90 227.868 71.290
4.91 203.338 67.297
4.92 205.482 63.127
4.93 --undefined-- 59.850
4.94 --undefined-- 59.774
4.95 --undefined-- 65.689
4.96 272.182 71.824
4.97 272.199 75.307
4.98 259.790 77.197
4.99 252.831 78.373
5.00 250.313 78.537
5.01 251.584 77.265
5.02 252.850 74.426
5.03 248.683 70.003
5.04 243.512 65.246
5.05 289.848 67.146
5.06 295.077 71.377
5.07 290.691 73.501
5.08 280.011 74.160
5.09 264.332 74.223
5.10 237.332 74.161
5.11 216.632 73.907
5.12 199.153 73.171
5.13 180.367 71.912
5.14 169.480 70.400
5.15 165.452 69.409
5.16 163.459 69.129
5.17 161.861 68.955
5.18 160.561 68.703
5.19 158.367 68.565
5.20 157.922 68.742
5.21 158.663 69.295
5.22 159.808 69.804
5.23 160.708 69.811
5.24 157.735 68.980
5.25 152.394 66.951
5.26 151.105 63.420
5.27 159.762 58.486
5.28 162.216 53.086
5.29 --undefined-- 49.655
5.30 --undefined-- 48.497
5.31 --undefined-- 47.586
5.32 --undefined-- 47.466
5.33 --undefined-- 51.708
5.34 --undefined-- 60.986
5.35 --undefined-- 68.143
5.36 164.882 --undefined--
5.37 161.869 --undefined--
5.38 --undefined-- --undefined--
5.39 --undefined-- --undefined--
