Time Pitch Intensity
0.01 --undefined-- --undefined--
0.02 267.191 --undefined--
0.03 262.790 --undefined--
0.04 --undefined-- --undefined--
0.05 --undefined-- 54.949
0.06 --undefined-- 54.599
0.07 --undefined-- 54.527
0.08 --undefined-- 53.651
0.09 --undefined-- 52.413
0.10 --undefined-- 49.815
0.11 --undefined-- 48.568
0.12 --undefined-- 53.615
0.13 --undefined-- 57.921
0.14 --undefined-- 59.444
0.15 --undefined-- 58.531
0.16 --undefined-- 56.418
0.17 --undefined-- 54.306
0.18 --undefined-- 51.820
0.19 --undefined-- 51.684
0.20 --undefined-- 53.690
0.21 --undefined-- 54.653
0.22 --undefined-- 54.051
0.23 --undefined-- 51.902
0.24 --undefined-- 50.773
0.25 --undefined-- 51.303
0.26 --undefined-- 53.134
0.27 --undefined-- 54.690
0.28 --undefined-- 54.103
0.29 --undefined-- 52.533
0.30 --undefined-- 53.629
0.31 --undefined-- 54.905
0.32 --undefined-- 53.772
0.33 --undefined-- 52.431
0.34 --undefined-- 52.149
0.35 --undefined-- 53.823
0.36 263.011 60.871
0.37 247.537 67.060
0.38 238.836 71.240
0.39 234.348 73.761
0.40 231.790 75.122
0.41 231.204 75.785
0.42 231.482 76.085
0.43 231.863 76.248
0.44 231.785 76.366
0.45 231.400 76.417
0.46 231.180 76.357
0.47 231.637 76.255
0.48 232.647 76.181
0.49 233.494 76.043
0.50 234.643 75.655
0.51 236.181 74.840
0.52 236.802 73.444
0.53 235.503 71.246
0.54 232.093 67.918
0.55 228.513 63.305
0.56 223.172 58.242
0.57 233.371 54.098
0.58 233.072 51.802
0.59 236.430 52.144
0.60 238.235 55.623
0.61 237.775 59.110
0.62 248.664 60.172
0.63 262.955 59.207
0.64 219.085 61.257
0.65 205.580 65.513
0.66 200.180 68.263
0.67 197.216 69.593
0.68 197.290 70.158
0.69 198.250 70.430
0.70 198.830 70.442
0.71 201.919 70.043
0.72 206.333 69.156
0.73 214.117 68.363
0.74 223.293 68.278
0.75 228.278 68.182
0.76 236.134 67.807
0.77 245.999 67.811
0.78 255.793 68.075
0.79 265.987 68.550
0.80 275.486 69.369
0.81 284.640 70.514
0.82 289.772 71.524
0.83 293.218 71.709
0.84 295.596 70.664
0.85 293.236 67.985
0.86 285.268 63.045
0.87 --undefined-- 56.577
0.88 --undefined-- 53.992
0.89 --undefined-- 54.901
0.90 --undefined-- 57.535
0.91 --undefined-- 59.167
0.92 --undefined-- 58.547
0.93 --undefined-- 57.047
0.94 --undefined-- 56.278
0.95 --undefined-- 55.921
0.96 --undefined-- 56.535
0.97 --undefined-- 58.151
0.98 --undefined-- 59.949
0.99 --undefined-- 60.980
1.00 --undefined-- 62.958
1.01 --undefined-- 65.393
1.02 144.610 67.089
1.03 143.791 67.941
1.04 142.811 68.028
1.05 142.652 67.769
1.06 145.367 67.479
1.07 145.681 66.923
1.08 144.678 65.946
1.09 140.922 64.912
1.10 139.223 63.663
1.11 137.465 62.144
1.12 138.987 61.470
1.13 146.157 61.670
1.14 150.572 62.565
1.15 157.416 63.892
1.16 162.095 65.225
1.17 167.822 66.173
1.18 167.533 66.462
1.19 168.345 66.351
1.20 168.647 66.046
1.21 167.676 65.058
1.22 163.768 62.689
1.23 162.145 59.483
1.24 167.020 57.457
1.25 169.386 55.476
1.26 --undefined-- 53.377
1.27 --undefined-- 53.624
1.28 --undefined-- 53.333
1.29 --undefined-- 55.030
1.30 --undefined-- 60.708
1.31 180.342 64.832
1.32 173.542 66.625
1.33 164.967 66.962
1.34 160.446 66.694
1.35 159.718 66.154
1.36 160.404 65.575
1.37 161.554 65.355
1.38 163.029 65.440
1.39 165.583 65.479
1.40 168.469 65.780
1.41 171.071 66.164
1.42 174.989 66.282
1.43 182.809 67.058
1.44 188.098 68.824
1.45 192.663 70.253
1.46 198.694 70.562
1.47 207.875 69.923
1.48 215.262 69.268
1.49 216.794 68.675
1.50 217.679 68.000
1.51 228.821 68.458
1.52 231.851 69.827
1.53 236.031 71.461
1.54 239.094 72.441
1.55 243.045 72.431
1.56 246.952 72.801
1.57 246.336 73.634
1.58 245.331 73.505
1.59 245.626 72.768
1.60 245.246 72.305
1.61 243.295 72.290
1.62 239.867 72.457
1.63 234.539 72.284
1.64 227.688 71.821
1.65 219.189 71.718
1.66 210.079 71.962
1.67 199.561 71.981
1.68 189.551 71.908
1.69 184.560 71.683
1.70 181.639 71.081
1.71 179.875 70.061
1.72 180.604 68.843
1.73 181.371 67.897
1.74 180.840 67.063
1.75 178.458 65.134
1.76 180.067 61.594
1.77 181.833 57.341
1.78 182.345 54.945
1.79 --undefined-- 56.053
1.80 --undefined-- 55.778
1.81 --undefined-- 53.763
1.82 --undefined-- 53.624
1.83 --undefined-- 52.586
1.84 --undefined-- 49.067
1.85 --undefined-- 46.291
1.86 --undefined-- 47.417
1.87 --undefined-- 50.158
1.88 --undefined-- 52.235
1.89 --undefined-- 55.356
1.90 219.982 59.801
1.91 213.162 63.424
1.92 209.822 65.472
1.93 206.037 66.287
1.94 201.864 66.611
1.95 198.742 66.727
1.96 196.382 66.680
1.97 195.403 66.742
1.98 195.353 66.990
1.99 195.791 67.249
2.00 197.212 67.178
2.01 198.672 66.714
2.02 199.909 66.383
2.03 201.671 66.496
2.04 203.395 66.911
2.05 205.195 67.406
2.06 207.284 67.961
2.07 207.902 68.454
2.08 206.717 68.117
2.09 201.767 66.306
2.10 188.565 63.049
2.11 189.560 58.778
2.12 192.845 54.561
2.13 --undefined-- 52.887
2.14 --undefined-- 58.453
2.15 --undefined-- 64.381
2.16 210.242 67.825
2.17 199.341 69.579
2.18 193.962 70.575
2.19 191.036 70.980
2.20 189.330 70.612
2.21 187.902 69.839
2.22 188.765 69.392
2.23 189.132 69.358
2.24 189.743 69.293
2.25 190.955 69.133
2.26 191.967 69.052
2.27 193.460 69.147
2.28 194.467 69.386
2.29 195.247 69.582
2.30 196.202 69.588
2.31 197.234 69.450
2.32 198.758 69.158
2.33 200.514 68.651
2.34 202.858 68.134
2.35 205.108 67.642
2.36 207.764 67.152
2.37 211.591 67.327
2.38 217.681 68.806
2.39 218.993 70.685
2.40 219.812 72.065
2.41 221.214 73.038
2.42 222.301 73.645
2.43 222.017 74.028
2.44 220.405 74.645
2.45 217.898 75.546
2.46 215.152 75.987
2.47 210.235 75.616
2.48 204.672 74.818
2.49 197.855 74.152
2.50 189.724 74.177
2.51 181.546 74.371
2.52 174.638 74.192
2.53 170.939 73.205
2.54 166.927 70.873
2.55 165.376 67.383
2.56 --undefined-- 63.518
2.57 --undefined-- 59.889
2.58 --undefined-- 57.589
2.59 --undefined-- 57.052
2.60 --undefined-- 55.459
2.61 --undefined-- 52.544
2.62 --undefined-- 51.710
2.63 --undefined-- 52.271
2.64 --undefined-- 54.479
2.65 --undefined-- 56.915
2.66 --undefined-- 58.202
2.67 --undefined-- 57.893
2.68 --undefined-- 55.826
2.69 --undefined-- 53.082
2.70 --undefined-- 51.890
2.71 --undefined-- 51.892
2.72 --undefined-- 51.038
2.73 --undefined-- 49.326
2.74 --undefined-- 48.701
2.75 --undefined-- 48.270
2.76 --undefined-- 47.866
2.77 --undefined-- 47.850
2.78 --undefined-- 47.748
2.79 --undefined-- 47.481
2.80 --undefined-- 47.066
2.81 --undefined-- 49.386
2.82 --undefined-- 54.137
2.83 --undefined-- 56.367
2.84 --undefined-- 56.700
2.85 224.219 59.042
2.86 206.016 62.134
2.87 194.248 64.074
2.88 192.286 65.543
2.89 191.931 66.793
2.90 192.402 67.570
2.91 193.880 67.964
2.92 195.946 68.212
2.93 198.981 68.303
2.94 202.389 68.133
2.95 204.731 67.857
2.96 206.258 67.613
2.97 207.557 67.354
2.98 208.132 67.293
2.99 208.577 67.454
3.00 209.675 67.403
3.01 211.667 67.115
3.02 213.736 66.994
3.03 215.117 66.940
3.04 216.048 66.433
3.05 212.992 64.647
3.06 202.717 60.789
3.07 218.653 56.051
3.08 --undefined-- 55.188
3.09 --undefined-- 54.608
3.10 --undefined-- 53.674
3.11 --undefined-- 57.390
3.12 --undefined-- 63.330
3.13 288.337 67.293
3.14 283.388 69.042
3.15 281.296 69.729
3.16 282.923 70.247
3.17 285.301 70.680
3.18 286.443 71.028
3.19 286.770 71.276
3.20 287.841 71.423
3.21 288.868 71.444
3.22 289.833 71.233
3.23 291.949 71.028
3.24 294.549 71.530
3.25 294.927 72.562
3.26 294.874 73.183
3.27 294.225 73.254
3.28 292.890 73.251
3.29 291.949 73.304
3.30 291.707 73.284
3.31 292.975 73.322
3.32 296.017 73.212
3.33 298.882 72.174
3.34 152.087 70.206
3.35 156.170 68.852
3.36 157.070 68.813
3.37 154.415 68.892
3.38 294.069 67.833
3.39 267.925 65.312
3.40 249.793 62.826
3.41 246.602 61.789
3.42 244.559 61.694
3.43 240.947 61.833
3.44 243.325 62.267
3.45 255.721 63.869
3.46 259.953 65.554
3.47 263.652 66.517
3.48 265.348 66.939
3.49 266.369 66.949
3.50 267.580 66.886
3.51 268.795 67.040
3.52 269.907 67.319
3.53 270.916 67.512
3.54 271.547 67.796
3.55 272.044 68.272
3.56 272.575 68.542
3.57 273.193 68.474
3.58 273.970 68.285
3.59 274.579 68.202
3.60 274.945 68.368
3.61 275.585 68.470
3.62 275.908 68.125
3.63 274.740 67.324
3.64 270.672 65.936
3.65 257.725 63.767
3.66 247.076 61.114
3.67 223.625 58.202
3.68 273.565 54.508
3.69 --undefined-- 50.958
3.70 --undefined-- 50.718
3.71 --undefined-- 53.426
3.72 --undefined-- 56.032
3.73 --undefined-- 56.527
3.74 --undefined-- 55.230
3.75 --undefined-- 52.786
3.76 --undefined-- 50.321
3.77 --undefined-- 54.543
3.78 --undefined-- 60.405
3.79 --undefined-- 64.040
3.80 --undefined-- 66.217
3.81 --undefined-- 67.740
3.82 --undefined-- 68.319
3.83 --undefined-- 67.909
3.84 --undefined-- 66.682
3.85 --undefined-- 63.963
3.86 --undefined-- 59.463
3.87 --undefined-- 57.703
3.88 --undefined-- 58.533
3.89 --undefined-- 58.059
3.90 --undefined-- 56.683
3.91 --undefined-- 57.467
3.92 --undefined-- 59.043
3.93 --undefined-- 57.934
3.94 --undefined-- 53.990
3.95 182.494 51.595
3.96 199.024 53.903
3.97 219.639 56.716
3.98 195.136 58.295
3.99 185.642 59.087
4.00 186.629 60.224
4.01 183.224 61.437
4.02 178.233 62.187
4.03 170.278 61.919
4.04 169.874 60.735
4.05 168.949 59.643
4.06 170.198 59.302
4.07 172.900 59.728
4.08 175.739 60.810
4.09 180.920 62.329
4.10 184.152 63.648
4.11 188.177 64.267
4.12 191.694 64.358
4.13 193.606 64.140
4.14 196.386 63.661
4.15 198.621 62.871
4.16 199.461 61.243
4.17 193.538 57.971
4.18 --undefined-- 52.963
4.19 --undefined-- 50.562
4.20 --undefined-- 50.128
4.21 --undefined-- 49.534
4.22 --undefined-- 53.253
4.23 --undefined-- 60.315
4.24 247.357 66.325
4.25 241.020 70.107
4.26 237.460 72.154
4.27 236.361 72.976
4.28 237.998 72.669
4.29 239.459 71.258
4.30 240.901 69.247
4.31 241.671 67.463
4.32 239.639 66.919
4.33 240.311 67.189
4.34 239.571 67.342
4.35 240.640 67.254
4.36 241.965 67.138
4.37 243.153 66.994
4.38 243.700 66.869
4.39 243.894 66.829
4.40 242.717 66.618
4.41 240.258 65.821
4.42 232.786 64.049
4.43 222.544 61.282
4.44 223.013 58.263
4.45 239.465 57.017
4.46 --undefined-- 58.909
4.47 --undefined-- 61.703
4.48 243.571 65.423
4.49 244.389 68.539
4.50 240.855 69.647
4.51 236.922 69.359
4.52 234.139 69.014
4.53 231.563 68.874
4.54 228.438 68.505
4.55 225.758 67.753
4.56 224.144 66.936
4.57 225.718 66.512
4.58 227.383 66.346
4.59 227.993 66.512
4.60 228.453 66.808
4.61 227.963 66.875
4.62 227.101 66.556
4.63 226.064 65.673
4.64 222.840 63.817
4.65 210.710 60.882
4.66 204.429 58.358
4.67 202.466 57.070
4.68 217.149 55.357
4.69 264.684 58.549
4.70 244.524 64.520
4.71 239.936 68.157
4.72 234.134 69.302
4.73 229.477 68.764
4.74 226.825 67.562
4.75 223.414 66.554
4.76 220.626 66.559
4.77 215.413 67.032
4.78 211.542 66.971
4.79 203.500 66.277
4.80 195.273 65.660
4.81 189.133 65.426
4.82 186.064 65.092
4.83 182.734 64.235
4.84 179.736 62.410
4.85 181.318 59.259
4.86 183.646 56.053
4.87 --undefined-- 53.768
4.88 --undefined-- 51.277
4.89 --undefined-- 52.315
4.90 --undefined-- 54.935
4.91 --undefined-- 54.697
4.92 --undefined-- 51.096
4.93 --undefined-- 45.641
4.94 --undefined-- 46.139
4.95 --undefined-- 50.416
4.96 --undefined-- --undefined--
4.97 --undefined-- --undefined--
4.98 --undefined-- --undefined--
4.99 --undefined-- --undefined--
