Time Pitch Intensity
0.01 --undefined-- --undefined--
0.02 179.312 --undefined--
0.03 179.722 --undefined--
0.04 180.656 --undefined--
0.05 181.681 68.462
0.06 181.813 68.187
0.07 181.488 68.191
0.08 181.289 68.167
0.09 182.015 68.103
0.10 182.754 68.010
0.11 182.587 67.872
0.12 181.771 67.707
0.13 180.838 67.468
0.14 178.886 67.012
0.15 174.736 66.503
0.16 170.065 66.590
0.17 164.900 67.257
0.18 159.841 67.513
0.19 156.906 66.218
0.20 151.488 62.330
0.21 --undefined-- 56.352
0.22 --undefined-- 54.261
0.23 --undefined-- 56.758
0.24 --undefined-- 59.192
0.25 --undefined-- 61.451
0.26 279.016 64.533
0.27 250.789 66.831
0.28 234.862 67.737
0.29 221.224 67.654
0.30 208.128 66.942
0.31 199.685 66.024
0.32 194.446 65.296
0.33 192.295 65.018
0.34 191.690 64.953
0.35 191.803 64.928
0.36 191.908 64.887
0.37 192.225 64.855
0.38 192.250 64.902
0.39 191.955 64.996
0.40 192.204 65.013
0.41 192.551 64.986
0.42 192.816 64.993
0.43 193.980 65.032
0.44 195.972 64.954
0.45 196.138 64.693
0.46 195.718 64.508
0.47 197.480 64.542
0.48 197.629 64.288
0.49 197.364 63.727
0.50 197.906 63.265
0.51 198.378 62.623
0.52 197.899 61.312
0.53 193.461 59.582
0.54 186.130 59.038
0.55 186.095 59.792
0.56 --undefined-- 62.357
0.57 --undefined-- 65.197
0.58 199.899 66.776
0.59 190.477 67.724
0.60 186.870 68.163
0.61 183.009 68.037
0.62 180.589 67.647
0.63 178.300 67.147
0.64 176.560 66.664
0.65 176.344 66.311
0.66 176.469 65.984
0.67 176.118 65.593
0.68 175.650 65.315
0.69 175.425 65.415
0.70 176.313 65.884
0.71 179.242 66.201
0.72 181.700 65.968
0.73 184.813 65.383
0.74 186.770 65.033
0.75 188.612 64.903
0.76 188.901 64.490
0.77 189.521 63.604
0.78 190.556 62.210
0.79 187.756 60.124
0.80 189.867 57.456
0.81 191.751 54.993
0.82 191.346 53.209
0.83 --undefined-- 53.945
0.84 --undefined-- 58.918
0.85 --undefined-- 64.001
0.86 --undefined-- 66.311
0.87 --undefined-- 65.869
0.88 204.191 65.139
0.89 217.407 65.527
0.90 227.134 65.329
0.91 225.345 65.624
0.92 221.995 66.831
0.93 213.897 67.519
0.94 206.585 68.379
0.95 201.682 69.838
0.96 198.373 71.075
0.97 196.288 71.304
0.98 196.682 70.671
0.99 197.724 70.055
1.00 199.058 69.571
1.01 200.094 68.894
1.02 201.692 67.993
1.03 203.700 66.884
1.04 205.446 65.649
1.05 205.310 64.113
1.06 204.406 61.701
1.07 190.099 58.181
1.08 182.262 54.489
1.09 182.624 52.729
1.10 --undefined-- 53.431
1.11 --undefined-- 54.792
1.12 --undefined-- 57.048
1.13 --undefined-- 58.883
1.14 --undefined-- 60.466
1.15 205.642 63.142
1.16 193.479 65.280
1.17 189.583 66.545
1.18 183.060 67.055
1.19 178.497 67.187
1.20 176.212 67.493
1.21 174.475 67.591
1.22 173.459 67.130
1.23 173.858 66.213
1.24 174.443 65.110
1.25 175.781 64.172
1.26 177.002 63.404
1.27 178.564 62.808
1.28 179.217 62.538
1.29 180.034 62.614
1.30 181.035 62.666
1.31 181.414 62.546
1.32 181.980 62.477
1.33 182.123 62.630
1.34 182.224 62.695
1.35 182.167 62.348
1.36 181.788 61.467
1.37 180.801 59.445
1.38 173.623 56.008
1.39 --undefined-- 54.005
1.40 --undefined-- 55.976
1.41 --undefined-- 56.907
1.42 --undefined-- 55.278
1.43 --undefined-- 51.594
1.44 --undefined-- 50.038
1.45 --undefined-- 53.955
1.46 --undefined-- 57.195
1.47 --undefined-- 60.375
1.48 263.906 64.282
1.49 260.174 66.749
1.50 259.258 67.821
1.51 260.891 68.437
1.52 261.048 68.980
1.53 258.832 69.247
1.54 256.235 68.893
1.55 253.587 68.140
1.56 253.009 67.959
1.57 257.548 68.809
1.58 263.720 69.875
1.59 267.938 70.562
1.60 269.400 70.782
1.61 270.027 70.606
1.62 270.651 70.027
1.63 270.844 68.984
1.64 270.772 67.999
1.65 270.939 67.876
1.66 271.516 68.266
1.67 273.963 68.318
1.68 275.055 67.810
1.69 274.501 67.139
1.70 274.544 66.783
1.71 275.302 66.836
1.72 277.585 67.024
1.73 277.756 66.920
1.74 273.767 66.000
1.75 263.549 64.087
1.76 252.414 61.810
1.77 235.729 59.999
1.78 233.128 58.455
1.79 269.089 56.129
1.80 271.228 53.249
1.81 273.972 51.490
1.82 278.061 51.517
1.83 263.156 54.055
1.84 258.764 55.560
1.85 255.651 54.970
1.86 209.121 54.923
1.87 208.980 58.256
1.88 197.857 61.853
1.89 185.903 64.558
1.90 180.133 66.428
1.91 176.660 67.803
1.92 174.243 68.653
1.93 172.444 68.750
1.94 170.680 68.296
1.95 170.520 67.555
1.96 171.192 66.895
1.97 172.240 66.585
1.98 173.414 66.300
1.99 173.696 65.662
2.00 174.165 64.802
2.01 175.728 64.817
2.02 176.897 65.823
2.03 177.308 66.341
2.04 178.598 65.848
2.05 179.870 65.050
2.06 180.728 64.509
2.07 182.288 63.966
2.08 183.674 63.217
2.09 182.321 62.042
2.10 179.287 60.343
2.11 175.598 59.263
2.12 180.004 60.349
2.13 182.631 62.298
2.14 190.139 63.814
2.15 198.055 64.908
2.16 205.207 66.054
2.17 206.844 67.285
2.18 206.102 68.001
2.19 204.365 67.799
2.20 201.995 66.918
2.21 199.324 65.984
2.22 198.150 65.191
2.23 197.109 64.353
2.24 195.612 63.666
2.25 193.477 63.395
2.26 192.345 63.414
2.27 191.998 63.457
2.28 192.541 63.387
2.29 193.578 63.237
2.30 195.745 63.019
2.31 197.678 62.729
2.32 199.568 62.472
2.33 202.220 62.382
2.34 204.492 62.496
2.35 205.587 62.663
2.36 207.549 62.802
2.37 209.405 62.963
2.38 210.366 63.002
2.39 209.442 62.210
2.40 205.164 59.775
2.41 195.217 56.012
2.42 --undefined-- 53.932
2.43 --undefined-- 52.991
2.44 --undefined-- 53.544
2.45 --undefined-- 57.509
2.46 --undefined-- 61.881
2.47 275.860 66.157
2.48 260.858 69.658
2.49 258.404 72.222
2.50 259.378 73.744
2.51 259.284 73.985
2.52 258.097 72.663
2.53 256.479 69.153
2.54 257.957 62.919
2.55 257.495 55.308
2.56 257.533 50.071
2.57 --undefined-- 47.392
2.58 --undefined-- 46.650
2.59 --undefined-- 45.020
2.60 --undefined-- 43.726
2.61 --undefined-- 45.773
2.62 --undefined-- 46.576
2.63 --undefined-- 45.095
2.64 --undefined-- 44.797
2.65 --undefined-- 45.621
2.66 --undefined-- 45.434
2.67 --undefined-- 44.599
2.68 --undefined-- 45.123
2.69 --undefined-- 46.157
2.70 --undefined-- 47.228
2.71 --undefined-- 54.675
2.72 --undefined-- 61.253
2.73 --undefined-- 63.864
2.74 --undefined-- 62.929
2.75 --undefined-- 59.372
2.76 --undefined-- 54.859
2.77 --undefined-- 50.932
2.78 --undefined-- 51.285
2.79 --undefined-- 54.059
2.80 --undefined-- 55.826
2.81 --undefined-- 56.523
2.82 --undefined-- 57.725
2.83 166.765 60.051
2.84 169.483 61.754
2.85 174.523 61.990
2.86 178.871 61.272
2.87 178.920 61.269
2.88 181.613 62.056
2.89 180.620 62.546
2.90 179.808 62.516
2.91 180.071 62.514
2.92 182.076 62.943
2.93 185.402 63.308
2.94 187.477 63.014
2.95 187.552 62.016
2.96 189.474 61.816
2.97 204.410 63.543
2.98 211.130 65.192
2.99 215.020 66.077
3.00 219.124 66.538
3.01 223.304 66.770
3.02 227.359 66.791
3.03 231.748 66.629
3.04 235.775 66.453
3.05 238.671 66.202
3.06 242.089 65.752
3.07 244.202 65.304
3.08 247.579 65.211
3.09 251.153 65.427
3.10 253.635 65.195
3.11 249.890 63.632
3.12 240.112 60.200
3.13 233.662 55.120
3.14 --undefined-- 52.884
3.15 --undefined-- 53.569
3.16 --undefined-- 52.927
3.17 --undefined-- 53.105
3.18 --undefined-- 55.653
3.19 --undefined-- 58.840
3.20 277.726 63.369
3.21 267.544 67.340
3.22 264.662 70.408
3.23 261.615 72.939
3.24 258.698 74.676
3.25 256.416 75.548
3.26 255.899 75.626
3.27 257.631 74.889
3.28 259.481 73.302
3.29 258.370 71.248
3.30 255.958 69.012
3.31 252.420 66.605
3.32 228.612 64.606
3.33 223.085 62.537
3.34 225.412 60.051
3.35 258.258 57.649
3.36 --undefined-- 55.173
3.37 --undefined-- 52.745
3.38 --undefined-- 49.905
3.39 --undefined-- 47.126
3.40 --undefined-- 45.880
3.41 --undefined-- 49.095
3.42 --undefined-- 52.373
3.43 --undefined-- 53.153
3.44 --undefined-- 51.458
3.45 --undefined-- 49.104
3.46 --undefined-- 51.923
3.47 --undefined-- 56.087
3.48 --undefined-- 58.008
3.49 --undefined-- 57.556
3.50 --undefined-- 54.937
3.51 --undefined-- 51.052
3.52 --undefined-- 49.570
3.53 --undefined-- 51.250
3.54 --undefined-- 55.076
3.55 --undefined-- 57.830
3.56 --undefined-- 58.839
3.57 --undefined-- 58.496
3.58 --undefined-- 57.338
3.59 --undefined-- 55.978
3.60 --undefined-- 54.517
3.61 --undefined-- 52.788
3.62 --undefined-- 50.302
3.63 --undefined-- 48.115
3.64 --undefined-- 48.888
3.65 --undefined-- 52.038
3.66 --undefined-- 54.429
3.67 --undefined-- 55.307
3.68 --undefined-- 54.258
3.69 --undefined-- 51.538
3.70 --undefined-- 50.943
3.71 --undefined-- 52.806
3.72 --undefined-- 52.748
3.73 --undefined-- 49.831
3.74 --undefined-- 47.855
3.75 --undefined-- 49.604
3.76 --undefined-- 53.057
3.77 --undefined-- 56.418
3.78 --undefined-- 58.897
3.79 --undefined-- 59.956
3.80 --undefined-- 59.203
3.81 --undefined-- 57.006
3.82 --undefined-- 55.761
3.83 --undefined-- 56.008
3.84 --undefined-- 54.577
3.85 --undefined-- 51.435
3.86 --undefined-- 49.126
3.87 --undefined-- 51.412
3.88 --undefined-- 59.542
3.89 269.559 66.088
3.90 266.743 69.828
3.91 266.429 71.589
3.92 266.912 72.002
3.93 268.904 71.438
3.94 272.326 70.570
3.95 275.656 70.157
3.96 277.923 70.282
3.97 277.525 70.850
3.98 280.868 72.058
3.99 284.857 73.042
4.00 284.946 73.363
4.01 285.191 73.424
4.02 285.727 73.427
4.03 285.773 73.210
4.04 284.652 72.527
4.05 282.377 70.938
4.06 277.013 67.713
4.07 271.559 62.313
4.08 273.513 55.276
4.09 297.574 53.259
4.10 --undefined-- 54.156
4.11 --undefined-- 53.442
4.12 --undefined-- 56.964
4.13 157.336 62.513
4.14 155.702 66.140
4.15 157.481 67.811
4.16 158.228 68.264
4.17 158.121 68.289
4.18 158.081 68.361
4.19 157.348 68.603
4.20 155.251 69.125
4.21 151.751 69.487
4.22 288.225 69.162
4.23 269.500 68.781
4.24 257.428 69.183
4.25 251.471 69.599
4.26 244.939 69.083
4.27 240.207 67.187
4.28 237.116 63.439
4.29 239.031 57.383
4.30 --undefined-- 50.173
4.31 --undefined-- 46.954
4.32 --undefined-- 51.353
4.33 277.513 56.641
4.34 274.634 59.909
4.35 271.826 63.688
4.36 264.543 67.322
4.37 261.839 69.507
4.38 260.054 70.520
4.39 257.909 70.754
4.40 256.759 70.447
4.41 257.604 69.634
4.42 260.339 68.145
4.43 264.003 66.020
4.44 260.563 63.667
4.45 255.797 61.850
4.46 258.092 60.560
4.47 251.285 58.764
4.48 --undefined-- 57.966
4.49 --undefined-- 58.501
4.50 --undefined-- 59.412
4.51 172.679 63.279
4.52 172.607 66.061
4.53 178.328 66.628
4.54 181.385 66.274
4.55 181.026 65.839
4.56 173.346 64.585
4.57 158.353 61.927
4.58 --undefined-- 57.716
4.59 --undefined-- 52.428
4.60 --undefined-- 50.377
4.61 --undefined-- 53.796
4.62 --undefined-- 58.019
4.63 --undefined-- 60.622
4.64 --undefined-- 63.090
4.65 247.936 65.634
4.66 220.642 66.870
4.67 204.402 67.368
4.68 191.937 68.124
4.69 184.519 68.996
4.70 180.173 69.695
4.71 179.590 70.403
4.72 180.486 71.058
4.73 181.818 71.363
4.74 184.757 71.453
4.75 190.318 71.665
4.76 196.173 71.753
4.77 202.465 71.306
4.78 209.328 70.494
4.79 216.230 69.655
4.80 225.131 68.908
4.81 232.650 68.246
4.82 237.203 67.889
4.83 237.341 67.266
4.84 239.164 65.242
4.85 229.703 61.660
4.86 226.007 58.774
4.87 224.949 57.573
4.88 226.425 55.762
4.89 238.189 52.429
4.90 --undefined-- 54.885
4.91 --undefined-- 62.479
4.92 151.013 66.981
4.93 151.494 69.162
4.94 153.489 70.236
4.95 154.839 70.884
4.96 155.663 70.984
4.97 157.941 70.446
4.98 159.232 68.979
4.99 156.392 65.887
5.00 156.094 60.581
5.01 158.339 53.603
5.02 158.906 --undefined--
5.03 --undefined-- --undefined--
5.04 --undefined-- --undefined--
5.05 --undefined-- --undefined--
