Time Pitch Intensity
0.01 --undefined-- --undefined--
0.02 85.566 --undefined--
0.03 85.271 --undefined--
0.04 81.096 --undefined--
0.05 79.738 59.157
0.06 85.598 54.751
0.07 87.244 55.479
0.08 --undefined-- 61.863
0.09 102.803 66.291
0.10 103.031 68.383
0.11 102.561 68.560
0.12 102.686 67.662
0.13 99.722 65.971
0.14 99.673 62.778
0.15 --undefined-- 58.046
0.16 --undefined-- 55.513
0.17 --undefined-- 57.086
0.18 --undefined-- 59.457
0.19 --undefined-- 61.068
0.20 --undefined-- 61.081
0.21 --undefined-- 59.786
0.22 --undefined-- 58.654
0.23 --undefined-- 59.752
0.24 --undefined-- 64.043
0.25 --undefined-- 67.187
0.26 104.081 68.439
0.27 97.381 68.955
0.28 93.554 69.038
0.29 92.959 68.404
0.30 89.121 67.407
0.31 85.032 65.968
0.32 84.634 64.232
0.33 82.676 62.689
0.34 83.117 61.645
0.35 82.129 61.443
0.36 81.731 60.999
0.37 81.315 59.985
0.38 81.046 58.250
0.39 78.602 55.817
0.40 --undefined-- 52.914
0.41 --undefined-- 48.279
0.42 --undefined-- 41.199
0.43 --undefined-- 45.414
0.44 --undefined-- 53.411
0.45 --undefined-- 57.906
0.46 --undefined-- 59.352
0.47 --undefined-- 58.727
0.48 --undefined-- 62.202
0.49 --undefined-- 67.082
0.50 --undefined-- 68.808
0.51 --undefined-- 68.708
0.52 --undefined-- 68.726
0.53 82.843 68.591
0.54 83.147 68.088
0.55 84.837 67.560
0.56 84.792 66.871
0.57 86.863 65.359
0.58 --undefined-- 62.663
0.59 --undefined-- 59.570
0.60 --undefined-- 60.670
0.61 --undefined-- 61.913
0.62 --undefined-- 62.074
0.63 --undefined-- 64.224
0.64 --undefined-- 65.103
0.65 97.304 64.380
0.66 97.292 63.630
0.67 91.358 63.309
0.68 92.205 62.861
0.69 91.544 61.397
0.70 91.251 60.115
0.71 87.522 59.147
0.72 87.464 56.722
0.73 --undefined-- 51.844
0.74 --undefined-- 45.129
0.75 --undefined-- 49.405
0.76 --undefined-- 54.913
0.77 --undefined-- 57.075
0.78 --undefined-- 57.147
0.79 --undefined-- 57.460
0.80 --undefined-- 58.158
0.81 --undefined-- 60.162
0.82 --undefined-- 62.946
0.83 --undefined-- 63.529
0.84 --undefined-- 62.565
0.85 --undefined-- 61.458
0.86 --undefined-- 59.588
0.87 --undefined-- 56.343
0.88 --undefined-- 53.162
0.89 --undefined-- 52.275
0.90 --undefined-- 51.973
0.91 --undefined-- 52.024
0.92 --undefined-- 52.800
0.93 --undefined-- 53.326
0.94 --undefined-- 54.225
0.95 --undefined-- 57.106
0.96 82.782 60.202
0.97 82.350 62.156
0.98 81.439 62.787
0.99 81.305 62.461
1.00 81.460 62.064
1.01 82.293 62.105
1.02 83.522 62.180
1.03 85.706 61.968
1.04 87.910 61.577
1.05 90.214 61.179
1.06 92.038 60.877
1.07 92.958 60.885
1.08 93.879 60.841
1.09 94.620 60.231
1.10 95.074 59.187
1.11 95.980 58.133
1.12 96.936 57.284
1.13 97.498 56.844
1.14 98.507 56.953
1.15 100.655 57.717
1.16 100.673 58.721
1.17 100.262 59.260
1.18 99.898 58.844
1.19 96.863 56.856
1.20 96.632 54.054
1.21 96.478 53.338
1.22 101.006 54.090
1.23 97.747 54.612
1.24 95.485 55.296
1.25 92.604 56.067
1.26 90.513 56.701
1.27 90.724 56.585
1.28 93.213 55.225
1.29 90.669 53.087
1.30 89.218 52.154
1.31 --undefined-- 53.423
1.32 --undefined-- 55.063
1.33 --undefined-- 56.108
1.34 --undefined-- 56.946
1.35 --undefined-- 56.840
1.36 --undefined-- 55.318
1.37 --undefined-- 53.144
1.38 --undefined-- 50.345
1.39 --undefined-- 46.649
1.40 --undefined-- 44.075
1.41 --undefined-- 43.466
1.42 --undefined-- 43.647
1.43 --undefined-- 43.820
1.44 --undefined-- 43.970
1.45 --undefined-- 43.941
1.46 --undefined-- 43.216
1.47 --undefined-- 42.763
1.48 --undefined-- 45.236
1.49 --undefined-- 48.674
1.50 --undefined-- 49.598
1.51 --undefined-- 49.364
1.52 --undefined-- 50.342
1.53 --undefined-- 51.846
1.54 --undefined-- 53.995
1.55 --undefined-- 56.580
1.56 --undefined-- 59.534
1.57 --undefined-- 62.399
1.58 81.352 64.326
1.59 80.795 65.381
1.60 78.973 66.207
1.61 79.184 67.083
1.62 77.583 67.530
1.63 75.772 67.773
1.64 77.446 67.712
1.65 77.293 66.897
1.66 76.614 65.203
1.67 78.578 62.668
1.68 --undefined-- 59.066
1.69 --undefined-- 53.542
1.70 --undefined-- 45.063
1.71 --undefined-- 41.960
1.72 --undefined-- 52.629
1.73 --undefined-- 58.826
1.74 --undefined-- 60.490
1.75 --undefined-- 58.500
1.76 --undefined-- 55.689
1.77 --undefined-- 55.242
1.78 --undefined-- 54.977
1.79 --undefined-- 54.083
1.80 79.618 53.418
1.81 80.229 53.179
1.82 78.980 52.903
1.83 78.295 52.865
1.84 76.435 52.122
1.85 --undefined-- 50.276
1.86 --undefined-- 48.881
1.87 --undefined-- 48.392
1.88 --undefined-- 47.572
1.89 --undefined-- 46.792
1.90 --undefined-- 46.735
1.91 --undefined-- 47.198
1.92 --undefined-- 48.002
1.93 --undefined-- 48.825
1.94 75.345 51.205
1.95 75.691 54.076
1.96 76.450 56.144
1.97 76.742 57.160
1.98 77.190 57.905
1.99 --undefined-- 59.225
2.00 --undefined-- 59.733
2.01 --undefined-- 58.825
2.02 --undefined-- 57.339
2.03 --undefined-- 55.288
2.04 --undefined-- 51.475
2.05 --undefined-- 45.065
2.06 --undefined-- 40.993
2.07 --undefined-- 48.898
2.08 --undefined-- 54.281
2.09 --undefined-- 55.727
2.10 --undefined-- 56.678
2.11 --undefined-- 60.572
2.12 75.363 63.712
2.13 75.215 65.656
2.14 77.576 66.693
2.15 74.452 66.507
2.16 --undefined-- 65.190
2.17 --undefined-- 63.064
2.18 --undefined-- 60.392
2.19 --undefined-- 57.858
2.20 --undefined-- 56.598
2.21 --undefined-- 56.820
2.22 --undefined-- 56.989
2.23 --undefined-- 56.768
2.24 --undefined-- 55.761
2.25 --undefined-- 54.140
2.26 --undefined-- 54.044
2.27 --undefined-- 56.411
2.28 82.292 59.504
2.29 81.827 61.862
2.30 81.194 62.960
2.31 80.102 63.228
2.32 79.839 63.324
2.33 79.186 63.377
2.34 78.714 63.657
2.35 80.790 64.299
2.36 79.027 63.991
2.37 81.099 62.932
2.38 80.765 62.612
2.39 80.722 62.981
2.40 78.294 62.897
2.41 78.560 62.031
2.42 78.669 60.023
2.43 76.049 56.698
2.44 --undefined-- 52.568
2.45 --undefined-- 47.617
2.46 --undefined-- 41.897
2.47 --undefined-- 37.570
2.48 --undefined-- 36.856
2.49 --undefined-- 37.756
2.50 --undefined-- 50.584
2.51 --undefined-- 62.078
2.52 --undefined-- 68.069
2.53 --undefined-- 69.552
2.54 --undefined-- 68.055
2.55 --undefined-- 69.434
2.56 --undefined-- 72.266
2.57 --undefined-- 73.212
2.58 98.499 72.797
2.59 99.255 71.966
2.60 99.596 70.631
2.61 99.321 68.188
2.62 102.495 65.535
2.63 103.323 63.943
2.64 102.653 62.671
2.65 100.416 61.364
2.66 101.013 60.342
2.67 101.299 59.327
2.68 100.904 58.422
2.69 102.140 58.180
2.70 103.951 58.771
2.71 104.431 59.272
2.72 105.084 58.337
2.73 --undefined-- 54.973
2.74 --undefined-- 50.450
2.75 --undefined-- 56.639
2.76 --undefined-- 61.332
2.77 --undefined-- 62.520
2.78 --undefined-- 63.389
2.79 --undefined-- 64.465
2.80 --undefined-- 64.575
2.81 --undefined-- 65.239
2.82 --undefined-- 65.455
2.83 --undefined-- 64.543
2.84 --undefined-- 63.596
2.85 --undefined-- 62.905
2.86 --undefined-- 62.249
2.87 --undefined-- 61.427
2.88 --undefined-- 60.345
2.89 --undefined-- 58.829
2.90 --undefined-- 56.924
2.91 --undefined-- 54.283
2.92 --undefined-- 50.541
2.93 --undefined-- 48.348
2.94 --undefined-- 48.688
2.95 --undefined-- 48.061
2.96 --undefined-- 47.652
2.97 --undefined-- 47.911
2.98 --undefined-- 47.903
2.99 --undefined-- 51.864
3.00 --undefined-- 58.494
3.01 --undefined-- 62.938
3.02 --undefined-- 64.863
3.03 --undefined-- 65.311
3.04 75.966 65.469
3.05 75.983 65.856
3.06 75.888 65.963
3.07 --undefined-- 64.977
3.08 --undefined-- 63.060
3.09 75.039 60.932
3.10 --undefined-- 58.732
3.11 --undefined-- 56.468
3.12 --undefined-- 54.432
3.13 --undefined-- 50.900
3.14 --undefined-- 44.480
3.15 --undefined-- 38.427
3.16 --undefined-- 36.931
3.17 --undefined-- 35.963
3.18 --undefined-- 35.414
3.19 --undefined-- 37.117
3.20 --undefined-- 39.545
3.21 --undefined-- 41.168
3.22 --undefined-- 42.202
3.23 --undefined-- 43.653
3.24 --undefined-- 45.136
3.25 --undefined-- 45.790
3.26 --undefined-- 46.371
3.27 --undefined-- 47.384
3.28 --undefined-- 48.117
3.29 --undefined-- 53.662
3.30 --undefined-- 61.364
3.31 --undefined-- 64.799
3.32 --undefined-- 63.904
3.33 --undefined-- 59.962
3.34 --undefined-- 58.023
3.35 --undefined-- 57.262
3.36 --undefined-- 56.117
3.37 --undefined-- 55.199
3.38 --undefined-- 54.201
3.39 --undefined-- 54.205
3.40 --undefined-- 55.281
3.41 --undefined-- 56.066
3.42 --undefined-- 55.540
3.43 --undefined-- 54.218
3.44 --undefined-- 53.894
3.45 --undefined-- 54.291
3.46 --undefined-- 53.289
3.47 --undefined-- 51.006
3.48 --undefined-- 49.251
3.49 --undefined-- 48.175
3.50 --undefined-- 47.097
3.51 --undefined-- 45.889
3.52 --undefined-- 43.986
3.53 --undefined-- 41.088
3.54 --undefined-- 37.998
3.55 --undefined-- 36.496
3.56 --undefined-- 38.010
3.57 --undefined-- 47.886
3.58 --undefined-- 55.001
3.59 --undefined-- 57.867
3.60 --undefined-- 58.908
3.61 --undefined-- 63.249
3.62 --undefined-- 66.775
3.63 --undefined-- 66.952
3.64 152.724 65.483
3.65 155.775 65.189
3.66 159.460 65.395
3.67 161.922 65.198
3.68 165.122 64.915
3.69 168.118 64.853
3.70 172.489 64.563
3.71 173.975 64.122
3.72 175.315 63.521
3.73 176.598 62.699
3.74 177.748 61.974
3.75 179.257 61.287
3.76 181.174 60.451
3.77 183.543 59.401
3.78 186.455 57.915
3.79 190.936 56.324
3.80 194.994 55.267
3.81 198.185 54.404
3.82 203.811 53.013
3.83 218.307 51.044
3.84 --undefined-- 49.073
3.85 --undefined-- 47.121
3.86 --undefined-- 44.603
3.87 --undefined-- 41.202
3.88 --undefined-- 37.692
3.89 --undefined-- 35.267
3.90 --undefined-- 34.274
3.91 --undefined-- 33.374
3.92 --undefined-- 34.065
3.93 --undefined-- 41.087
3.94 --undefined-- 51.563
3.95 --undefined-- 57.489
3.96 --undefined-- 58.783
3.97 --undefined-- 56.049
3.98 --undefined-- 53.334
3.99 123.943 55.566
4.00 119.354 57.548
4.01 116.226 58.691
4.02 112.822 59.941
4.03 110.594 62.529
4.04 109.080 66.182
4.05 107.540 69.147
4.06 107.156 70.880
4.07 106.543 71.923
4.08 105.993 72.592
4.09 105.829 72.799
4.10 105.580 72.430
4.11 106.020 71.094
4.12 106.573 68.283
4.13 --undefined-- 63.615
4.14 --undefined-- 57.214
4.15 --undefined-- 57.975
4.16 --undefined-- 63.017
4.17 --undefined-- 67.516
4.18 --undefined-- 70.426
4.19 105.566 71.173
4.20 102.855 70.517
4.21 99.528 69.293
4.22 97.194 67.938
4.23 95.589 66.981
4.24 94.052 66.669
4.25 93.753 66.393
4.26 94.562 66.164
4.27 94.529 66.307
4.28 93.242 66.555
4.29 93.493 66.565
4.30 94.190 66.107
4.31 94.632 65.182
4.32 96.663 64.243
4.33 96.289 63.853
4.34 96.826 63.631
4.35 97.017 63.320
4.36 96.241 62.939
4.37 95.633 62.292
4.38 95.384 61.169
4.39 94.925 60.223
4.40 95.753 60.143
4.41 96.419 59.834
4.42 97.784 57.873
4.43 --undefined-- 53.481
4.44 --undefined-- 46.821
4.45 --undefined-- 43.158
4.46 --undefined-- 49.356
4.47 --undefined-- 55.145
4.48 95.526 59.153
4.49 97.738 62.222
4.50 99.879 64.512
4.51 100.235 66.214
4.52 101.596 67.437
4.53 102.062 68.008
4.54 102.991 68.011
4.55 105.500 67.852
4.56 106.799 67.821
4.57 108.286 68.246
4.58 109.294 69.085
4.59 109.757 69.672
4.60 110.759 69.878
4.61 110.451 69.833
4.62 109.252 69.061
4.63 108.613 68.005
4.64 108.865 67.474
4.65 108.689 67.107
4.66 107.947 66.786
4.67 108.039 66.829
4.68 108.822 67.350
4.69 109.547 67.871
4.70 110.707 67.984
4.71 111.270 67.703
4.72 111.291 67.097
4.73 110.416 66.176
4.74 109.037 64.641
4.75 107.671 62.084
4.76 106.740 58.550
4.77 104.532 55.137
4.78 --undefined-- 53.478
4.79 --undefined-- 52.267
4.80 --undefined-- 49.477
4.81 --undefined-- 45.110
4.82 --undefined-- 40.735
4.83 --undefined-- 37.844
4.84 --undefined-- 38.248
4.85 --undefined-- 39.962
4.86 --undefined-- 41.785
4.87 --undefined-- 43.145
4.88 --undefined-- 44.224
4.89 --undefined-- 45.167
4.90 --undefined-- 45.082
4.91 --undefined-- 43.509
4.92 --undefined-- 40.870
4.93 --undefined-- 38.729
4.94 --undefined-- 37.431
4.95 --undefined-- 36.194
4.96 --undefined-- 36.346
4.97 --undefined-- 37.477
4.98 --undefined-- 38.457
4.99 --undefined-- 38.535
5.00 --undefined-- 36.945
5.01 --undefined-- 35.331
5.02 --undefined-- 35.279
5.03 --undefined-- 34.819
5.04 --undefined-- 33.268
5.05 --undefined-- 32.568
5.06 --undefined-- 33.080
5.07 --undefined-- 33.267
5.08 --undefined-- 33.476
5.09 --undefined-- 33.420
5.10 --undefined-- 32.709
5.11 --undefined-- 31.888
5.12 --undefined-- 31.979
5.13 --undefined-- 32.427
5.14 --undefined-- 36.134
5.15 --undefined-- 41.745
5.16 --undefined-- 43.834
5.17 --undefined-- 41.963
5.18 --undefined-- 37.158
5.19 --undefined-- 37.890
5.20 --undefined-- 47.990
5.21 --undefined-- 54.373
5.22 --undefined-- 56.287
5.23 --undefined-- 55.036
5.24 --undefined-- 54.014
5.25 --undefined-- 54.848
5.26 --undefined-- 56.572
5.27 --undefined-- 58.326
5.28 --undefined-- 59.180
5.29 --undefined-- 58.777
5.30 --undefined-- 58.918
5.31 --undefined-- 59.881
5.32 106.277 60.205
5.33 102.904 60.795
5.34 110.090 63.170
5.35 110.723 66.008
5.36 111.788 67.691
5.37 114.395 68.462
5.38 117.303 69.299
5.39 120.980 70.299
5.40 122.871 70.228
5.41 --undefined-- 67.754
5.42 --undefined-- 61.910
5.43 --undefined-- 51.656
5.44 --undefined-- 44.916
5.45 --undefined-- 52.780
5.46 --undefined-- 59.216
5.47 --undefined-- 64.160
5.48 --undefined-- 67.976
5.49 --undefined-- 70.132
5.50 --undefined-- 70.761
5.51 --undefined-- 70.004
5.52 --undefined-- 67.834
5.53 --undefined-- 65.769
5.54 --undefined-- 66.033
5.55 156.264 66.881
5.56 155.650 66.684
5.57 152.077 66.052
5.58 142.543 65.917
5.59 141.647 --undefined--
5.60 134.564 --undefined--
5.61 --undefined-- --undefined--
5.62 --undefined-- --undefined--
