Time Pitch Intensity
0.01 --undefined-- --undefined--
0.02 221.777 --undefined--
0.03 222.408 --undefined--
0.04 222.961 --undefined--
0.05 223.758 77.715
0.06 224.742 77.555
0.07 225.729 77.276
0.08 226.338 76.799
0.09 225.944 75.814
0.10 222.826 73.710
0.11 220.444 69.808
0.12 229.055 63.530
0.13 --undefined-- 56.527
0.14 --undefined-- 58.849
0.15 247.842 66.197
0.16 236.918 71.331
0.17 229.899 73.732
0.18 226.986 74.535
0.19 225.937 74.943
0.20 224.918 75.195
0.21 223.082 75.094
0.22 221.642 74.784
0.23 220.526 74.546
0.24 216.517 74.903
0.25 218.906 76.095
0.26 223.013 77.217
0.27 223.356 77.712
0.28 223.739 77.769
0.29 223.399 77.627
0.30 222.442 77.327
0.31 220.735 76.833
0.32 217.543 76.012
0.33 212.949 74.771
0.34 206.904 73.143
0.35 198.747 71.276
0.36 187.626 69.679
0.37 175.805 68.923
0.38 161.089 68.725
0.39 145.470 68.639
0.40 138.930 68.813
0.41 133.404 68.998
0.42 128.790 68.782
0.43 123.941 67.906
0.44 120.465 65.806
0.45 117.221 62.540
0.46 119.977 60.566
0.47 128.721 61.539
0.48 135.186 63.276
0.49 137.497 64.134
0.50 137.047 63.347
0.51 135.827 60.428
0.52 --undefined-- 55.714
0.53 --undefined-- 53.761
0.54 --undefined-- 55.679
0.55 --undefined-- 57.500
0.56 --undefined-- 59.960
0.57 --undefined-- 62.296
0.58 --undefined-- 63.839
0.59 --undefined-- 66.523
0.60 199.324 70.321
0.61 190.324 72.402
0.62 184.920 73.075
0.63 181.849 73.241
0.64 179.120 73.193
0.65 176.997 73.018
0.66 176.291 72.751
0.67 176.844 72.363
0.68 177.934 71.964
0.69 179.000 71.527
0.70 178.680 70.728
0.71 177.601 69.445
0.72 177.770 68.217
0.73 180.871 67.836
0.74 184.210 68.346
0.75 184.907 69.386
0.76 184.637 70.657
0.77 184.666 71.724
0.78 180.433 72.356
0.79 177.136 72.853
0.80 174.551 73.146
0.81 172.787 73.071
0.82 171.384 72.749
0.83 170.734 72.496
0.84 170.103 72.428
0.85 168.732 72.037
0.86 167.293 71.225
0.87 166.374 70.473
0.88 165.145 69.955
0.89 163.987 69.521
0.90 163.413 69.152
0.91 163.076 68.736
0.92 162.879 68.276
0.93 162.519 67.955
0.94 161.471 67.707
0.95 160.990 67.415
0.96 160.886 67.117
0.97 159.086 66.763
0.98 156.173 66.018
0.99 --undefined-- 64.788
1.00 --undefined-- 63.194
1.01 --undefined-- 60.060
1.02 --undefined-- 53.468
1.03 --undefined-- 43.080
1.04 --undefined-- 38.581
1.05 --undefined-- 38.975
1.06 --undefined-- 39.634
1.07 --undefined-- 39.378
1.08 --undefined-- 40.462
1.09 --undefined-- 41.456
1.10 --undefined-- 40.726
1.11 --undefined-- 39.502
1.12 --undefined-- 39.209
1.13 --undefined-- 40.008
1.14 --undefined-- 40.540
1.15 --undefined-- 39.314
1.16 --undefined-- 37.673
1.17 --undefined-- 38.630
1.18 --undefined-- 39.658
1.19 --undefined-- 38.865
1.20 --undefined-- 36.965
1.21 --undefined-- 36.296
1.22 --undefined-- 37.894
1.23 --undefined-- 39.987
1.24 --undefined-- 40.252
1.25 --undefined-- 39.223
1.26 --undefined-- 39.898
1.27 --undefined-- 40.857
1.28 --undefined-- 40.907
1.29 --undefined-- 40.156
1.30 --undefined-- 39.062
1.31 --undefined-- 38.682
1.32 --undefined-- 38.964
1.33 --undefined-- 39.961
1.34 --undefined-- 41.140
1.35 --undefined-- 41.093
1.36 --undefined-- 40.733
1.37 --undefined-- 40.599
1.38 --undefined-- 40.309
1.39 --undefined-- 40.416
1.40 --undefined-- 40.395
1.41 --undefined-- 40.342
1.42 --undefined-- 39.857
1.43 --undefined-- 40.074
1.44 --undefined-- 42.454
1.45 --undefined-- 50.550
1.46 --undefined-- 59.955
1.47 216.960 65.750
1.48 207.981 68.727
1.49 208.652 70.288
1.50 213.173 71.426
1.51 217.292 72.233
1.52 220.296 72.480
1.53 221.126 71.829
1.54 217.197 69.917
1.55 208.763 66.535
1.56 216.115 61.624
1.57 --undefined-- 54.911
1.58 --undefined-- 47.504
1.59 --undefined-- 47.298
1.60 --undefined-- 55.267
1.61 --undefined-- 63.649
1.62 --undefined-- 68.523
1.63 289.930 70.325
1.64 288.176 70.622
1.65 288.217 70.846
1.66 287.712 71.291
1.67 287.044 71.832
1.68 286.051 72.414
1.69 284.661 72.999
1.70 283.717 73.472
1.71 282.860 73.776
1.72 281.874 73.952
1.73 281.631 74.092
1.74 284.143 74.261
1.75 286.228 74.368
1.76 287.319 74.347
1.77 288.751 74.175
1.78 290.943 73.795
1.79 292.593 73.300
1.80 292.152 72.893
1.81 288.411 72.543
1.82 282.965 71.702
1.83 278.857 69.464
1.84 272.341 65.029
1.85 --undefined-- 57.686
1.86 --undefined-- 48.413
1.87 --undefined-- 43.322
1.88 --undefined-- 44.644
1.89 --undefined-- 53.260
1.90 --undefined-- 63.011
1.91 --undefined-- 69.105
1.92 235.621 72.049
1.93 228.775 72.952
1.94 222.058 73.084
1.95 217.529 73.202
1.96 214.208 73.440
1.97 211.171 73.807
1.98 209.341 74.247
1.99 208.782 74.760
2.00 209.217 75.419
2.01 209.880 76.117
2.02 210.227 76.608
2.03 210.564 76.783
2.04 211.808 76.629
2.05 214.388 76.151
2.06 216.464 75.326
2.07 217.226 73.915
2.08 214.198 71.768
2.09 207.997 70.452
2.10 214.195 70.642
2.11 214.024 70.504
2.12 215.109 70.296
2.13 231.634 70.941
2.14 248.635 71.713
2.15 255.407 71.725
2.16 260.806 71.310
2.17 268.114 71.102
2.18 275.899 71.332
2.19 281.333 71.325
2.20 284.945 70.247
2.21 283.230 67.752
2.22 275.503 64.171
2.23 259.688 61.042
2.24 262.079 59.890
2.25 264.291 59.704
2.26 219.348 60.257
2.27 225.690 64.139
2.28 231.616 68.390
2.29 226.633 70.797
2.30 208.623 71.685
2.31 195.179 71.712
2.32 183.703 71.569
2.33 178.342 71.827
2.34 175.547 72.186
2.35 173.880 72.360
2.36 173.291 72.429
2.37 173.956 72.288
2.38 174.114 71.845
2.39 174.404 71.585
2.40 175.695 71.787
2.41 175.733 72.028
2.42 176.139 72.217
2.43 176.720 72.389
2.44 178.474 72.459
2.45 178.769 72.273
2.46 178.333 71.643
2.47 176.660 70.553
2.48 173.946 69.303
2.49 175.705 69.036
2.50 181.378 70.382
2.51 180.240 71.566
2.52 175.622 71.902
2.53 170.764 71.889
2.54 166.511 71.784
2.55 162.367 71.510
2.56 159.826 71.221
2.57 158.910 70.972
2.58 157.752 70.624
2.59 158.860 70.443
2.60 161.208 70.371
2.61 160.937 70.248
2.62 161.402 70.257
2.63 163.231 70.423
2.64 164.784 70.694
2.65 165.190 71.025
2.66 165.993 71.228
2.67 166.446 71.170
2.68 165.209 70.882
2.69 163.327 70.387
2.70 161.461 69.735
2.71 163.515 69.544
2.72 164.779 70.215
2.73 163.159 70.938
2.74 161.073 71.264
2.75 159.007 71.275
2.76 157.511 71.177
2.77 156.410 71.088
2.78 155.606 71.017
2.79 155.052 70.976
2.80 154.400 70.962
2.81 153.831 71.021
2.82 154.024 71.203
2.83 154.391 71.447
2.84 154.607 71.584
2.85 154.880 71.495
2.86 155.333 71.184
2.87 155.726 70.690
2.88 155.848 70.120
2.89 156.429 69.512
2.90 155.767 68.796
2.91 154.783 67.648
2.92 150.888 65.261
2.93 --undefined-- 60.911
2.94 --undefined-- 54.039
2.95 --undefined-- 44.970
2.96 --undefined-- 41.737
2.97 --undefined-- 44.589
2.98 --undefined-- 48.410
2.99 --undefined-- 55.874
3.00 --undefined-- 64.658
3.01 199.561 70.192
3.02 195.618 72.618
3.03 189.705 72.961
3.04 187.160 72.401
3.05 186.463 71.654
3.06 186.085 70.743
3.07 185.847 69.230
3.08 184.391 66.380
3.09 184.213 61.315
3.10 --undefined-- 53.399
3.11 --undefined-- 45.647
3.12 --undefined-- 46.549
3.13 --undefined-- 53.814
3.14 --undefined-- 59.168
3.15 --undefined-- 62.916
3.16 286.751 67.940
3.17 277.402 71.542
3.18 268.756 73.070
3.19 261.135 73.564
3.20 255.861 73.448
3.21 251.464 72.212
3.22 241.155 69.167
3.23 229.107 64.000
3.24 245.236 57.148
3.25 --undefined-- 50.912
3.26 --undefined-- 48.055
3.27 --undefined-- 45.606
3.28 --undefined-- 44.063
3.29 --undefined-- 46.324
3.30 --undefined-- 49.264
3.31 --undefined-- 52.639
3.32 --undefined-- 57.234
3.33 --undefined-- 61.112
3.34 --undefined-- 63.211
3.35 --undefined-- 63.999
3.36 --undefined-- 64.066
3.37 --undefined-- 62.838
3.38 --undefined-- 61.006
3.39 --undefined-- 59.956
3.40 --undefined-- 58.244
3.41 --undefined-- 56.207
3.42 --undefined-- 57.041
3.43 200.989 63.494
3.44 192.620 68.070
3.45 177.582 69.848
3.46 156.990 69.972
3.47 146.427 69.666
3.48 141.159 69.499
3.49 138.068 69.424
3.50 137.503 69.209
3.51 137.702 68.899
3.52 139.182 68.515
3.53 140.564 68.068
3.54 142.651 67.729
3.55 145.121 67.451
3.56 144.620 67.171
3.57 144.508 67.008
3.58 143.851 66.904
3.59 143.892 66.732
3.60 144.711 66.539
3.61 145.518 66.214
3.62 146.563 65.877
3.63 148.196 65.577
3.64 149.174 64.973
3.65 149.319 64.421
3.66 151.013 64.634
3.67 158.752 66.301
3.68 163.393 68.140
3.69 163.243 68.923
3.70 162.126 68.980
3.71 161.478 68.900
3.72 161.446 68.953
3.73 161.689 69.125
3.74 162.272 69.249
3.75 162.490 69.314
3.76 163.087 69.562
3.77 164.112 69.994
3.78 165.235 70.279
3.79 165.769 70.359
3.80 165.923 70.403
3.81 166.014 70.418
3.82 166.320 70.169
3.83 165.919 69.439
3.84 164.574 68.094
3.85 161.637 65.731
3.86 154.709 61.532
3.87 --undefined-- 54.529
3.88 --undefined-- 45.184
3.89 --undefined-- 42.883
3.90 --undefined-- 43.491
3.91 --undefined-- 43.469
3.92 --undefined-- 43.655
3.93 --undefined-- 45.016
3.94 --undefined-- 53.077
3.95 --undefined-- 62.574
3.96 258.189 68.511
3.97 247.254 71.533
3.98 242.573 72.703
3.99 239.262 72.984
4.00 236.595 72.903
4.01 234.172 72.596
4.02 231.612 72.377
4.03 231.513 72.732
4.04 232.760 73.299
4.05 232.953 73.727
4.06 233.876 74.108
4.07 234.287 74.448
4.08 233.846 74.694
4.09 232.679 74.846
4.10 231.000 74.788
4.11 227.652 74.150
4.12 222.098 72.269
4.13 216.402 68.427
4.14 213.922 61.773
4.15 --undefined-- 52.442
4.16 --undefined-- 44.642
4.17 --undefined-- 42.653
4.18 --undefined-- 43.265
4.19 --undefined-- 50.339
4.20 --undefined-- 60.879
4.21 209.849 67.435
4.22 196.936 70.385
4.23 179.892 70.790
4.24 165.849 70.057
4.25 161.626 69.249
4.26 157.999 68.778
4.27 161.012 69.028
4.28 166.910 69.732
4.29 172.768 70.551
4.30 176.754 71.249
4.31 180.433 71.775
4.32 184.184 72.189
4.33 188.865 72.439
4.34 194.338 72.433
4.35 199.128 71.695
4.36 201.411 69.454
4.37 206.270 64.935
4.38 --undefined-- 57.578
4.39 --undefined-- 47.458
4.40 --undefined-- 41.847
4.41 --undefined-- 42.934
4.42 --undefined-- 50.075
4.43 --undefined-- 58.345
4.44 244.661 63.977
4.45 239.758 66.999
4.46 227.590 68.299
4.47 211.926 68.743
4.48 188.654 68.759
4.49 160.189 68.330
4.50 143.974 67.058
4.51 127.092 65.255
4.52 119.892 64.594
4.53 120.293 65.279
4.54 119.732 65.936
4.55 119.047 66.124
4.56 119.330 65.871
4.57 121.967 65.279
4.58 123.815 64.468
4.59 123.336 63.749
4.60 121.613 62.633
4.61 118.907 60.076
4.62 --undefined-- 55.280
4.63 --undefined-- 48.155
4.64 --undefined-- 42.724
4.65 --undefined-- 46.140
4.66 --undefined-- 50.653
4.67 --undefined-- 51.619
4.68 --undefined-- 48.838
4.69 --undefined-- 48.286
4.70 --undefined-- 54.393
4.71 --undefined-- 59.214
4.72 --undefined-- 62.483
4.73 140.913 64.643
4.74 141.910 65.718
4.75 139.170 66.055
4.76 137.381 66.074
4.77 138.079 66.068
4.78 138.984 66.229
4.79 140.704 66.534
4.80 143.385 66.948
4.81 147.245 67.439
4.82 152.074 67.884
4.83 156.971 68.358
4.84 161.972 68.913
4.85 166.506 69.386
4.86 170.713 69.757
4.87 174.713 70.208
4.88 180.024 70.586
4.89 185.735 70.733
4.90 189.117 70.725
4.91 189.579 70.504
4.92 187.064 69.711
4.93 182.407 68.051
4.94 --undefined-- 65.602
4.95 --undefined-- 62.329
4.96 --undefined-- 58.041
4.97 --undefined-- 52.450
4.98 --undefined-- 45.981
4.99 --undefined-- 42.703
5.00 --undefined-- 42.444
5.01 --undefined-- 42.475
5.02 --undefined-- 41.462
5.03 --undefined-- 39.870
5.04 --undefined-- 39.374
5.05 --undefined-- 39.678
5.06 --undefined-- 40.702
5.07 --undefined-- 40.854
5.08 --undefined-- 39.040
5.09 --undefined-- 39.892
5.10 --undefined-- 41.676
5.11 --undefined-- 42.035
5.12 --undefined-- 42.749
5.13 --undefined-- 42.288
5.14 --undefined-- 39.876
5.15 --undefined-- 37.487
5.16 --undefined-- 36.753
5.17 --undefined-- 37.185
5.18 --undefined-- 37.511
5.19 --undefined-- 38.212
5.20 --undefined-- 38.992
5.21 --undefined-- 39.201
5.22 --undefined-- 38.210
5.23 --undefined-- 35.293
5.24 --undefined-- 29.905
5.25 --undefined-- 21.432
5.26 --undefined-- 8.822
5.27 --undefined-- -2.279
5.28 --undefined-- -2.595
5.29 --undefined-- -2.179
5.30 --undefined-- -2.060
5.31 --undefined-- -2.365
5.32 --undefined-- -2.638
5.33 --undefined-- -2.666
5.34 --undefined-- -2.548
5.35 --undefined-- -2.638
5.36 --undefined-- -2.464
5.37 --undefined-- -1.886
5.38 --undefined-- -1.581
5.39 --undefined-- -1.469
5.40 --undefined-- -1.629
5.41 --undefined-- -2.106
5.42 --undefined-- -2.889
5.43 --undefined-- -3.550
5.44 --undefined-- -3.022
5.45 --undefined-- 7.291
5.46 --undefined-- 22.659
5.47 --undefined-- 32.054
5.48 --undefined-- 37.234
5.49 --undefined-- 39.458
5.50 --undefined-- 40.024
5.51 --undefined-- 41.210
5.52 --undefined-- 43.106
5.53 --undefined-- 43.332
5.54 --undefined-- 41.805
5.55 --undefined-- 40.616
5.56 --undefined-- 39.798
5.57 --undefined-- 38.789
5.58 --undefined-- 38.270
5.59 --undefined-- 37.629
5.60 --undefined-- 37.650
5.61 --undefined-- 39.841
5.62 --undefined-- 49.062
5.63 --undefined-- 59.580
5.64 231.774 66.427
5.65 222.543 69.975
5.66 217.598 71.276
5.67 215.327 71.672
5.68 217.026 72.443
5.69 217.621 73.410
5.70 219.612 74.164
5.71 222.733 74.553
5.72 225.776 74.298
5.73 230.307 73.283
5.74 235.335 71.295
5.75 230.575 67.809
5.76 229.898 62.666
5.77 238.277 56.046
5.78 --undefined-- 49.305
5.79 --undefined-- 48.960
5.80 --undefined-- 54.585
5.81 --undefined-- 63.086
5.82 --undefined-- 68.934
5.83 296.063 71.936
5.84 289.481 73.206
5.85 286.081 73.617
5.86 284.670 73.586
5.87 284.769 73.472
5.88 284.823 73.437
5.89 284.706 73.318
5.90 284.095 73.024
5.91 282.842 72.728
5.92 282.288 72.577
5.93 282.898 72.489
5.94 284.208 72.373
5.95 285.620 72.242
5.96 286.826 72.187
5.97 287.255 72.252
5.98 287.232 72.480
5.99 286.729 72.869
6.00 284.555 73.283
6.01 280.510 73.645
6.02 282.410 73.989
6.03 285.789 74.157
6.04 287.067 74.027
6.05 287.836 73.726
6.06 287.432 73.433
6.07 285.797 73.218
6.08 283.486 73.024
6.09 280.919 72.663
6.10 277.353 71.767
6.11 275.154 69.782
6.12 273.901 65.907
6.13 --undefined-- 59.428
6.14 --undefined-- 50.121
6.15 --undefined-- 44.116
6.16 --undefined-- 42.923
6.17 --undefined-- 42.605
6.18 --undefined-- 45.617
6.19 --undefined-- 57.131
6.20 --undefined-- --undefined--
6.21 242.750 --undefined--
6.22 --undefined-- --undefined--
6.23 --undefined-- --undefined--
